,Generation - Wind Offshore  [MW] Day Ahead/ BZN|DK2
0,253.0
1,328.0
2,257.0
3,210.0
4,204.0
5,204.0
6,204.0
7,210.0
8,356.0
9,356.0
10,356.0
11,356.0
12,356.0
13,355.0
14,355.0
15,355.0
16,355.0
17,355.0
18,356.0
19,356.0
20,357.0
21,217.0
22,356.0
23,217.0
24,204.0
25,205.0
26,205.0
27,204.0
28,201.0
29,197.0
30,345.0
31,344.0
32,336.0
33,332.0
34,335.0
35,345.0
36,350.0
37,348.0
38,339.0
39,315.0
40,285.0
41,266.0
42,245.0
43,212.0
44,179.0
45,162.0
46,163.0
47,176.0
48,170.0
49,188.0
50,194.0
51,193.0
52,193.0
53,182.0
54,155.0
55,144.0
56,143.0
57,141.0
58,131.0
59,111.0
60,94.0
61,77.0
62,60.0
63,45.0
64,32.0
65,21.0
66,14.0
67,11.0
68,13.0
69,18.0
70,28.0
71,46.0
72,92.0
73,126.0
74,178.0
75,259.0
76,312.0
77,324.0
78,329.0
79,332.0
80,322.0
81,317.0
82,307.0
83,285.0
84,262.0
85,247.0
86,228.0
87,231.0
88,252.0
89,275.0
90,293.0
91,295.0
92,291.0
93,291.0
94,286.0
95,273.0
96,283.0
97,277.0
98,270.0
99,259.0
100,240.0
101,227.0
102,206.0
103,192.0
104,161.0
105,127.0
106,124.0
107,111.0
108,90.0
109,73.0
110,57.0
111,46.0
112,39.0
113,33.0
114,28.0
115,24.0
116,22.0
117,20.0
118,17.0
119,12.0
120,3.0
121,1.0
122,0.0
123,1.0
124,0.0
125,1.0
126,0.0
127,1.0
128,1.0
129,4.0
130,8.0
131,11.0
132,13.0
133,15.0
134,16.0
135,17.0
136,17.0
137,17.0
138,18.0
139,21.0
140,27.0
141,42.0
142,57.0
143,66.0
144,44.0
145,54.0
146,46.0
147,38.0
148,49.0
149,64.0
150,78.0
151,87.0
152,86.0
153,89.0
154,106.0
155,127.0
156,134.0
157,121.0
158,112.0
159,133.0
160,199.0
161,289.0
162,337.0
163,345.0
164,349.0
165,350.0
166,351.0
167,349.0
168,352.0
169,354.0
170,351.0
171,353.0
172,358.0
173,350.0
174,356.0
175,357.0
176,356.0
177,356.0
178,355.0
179,355.0
180,354.0
181,353.0
182,353.0
183,354.0
184,355.0
185,356.0
186,356.0
187,356.0
188,356.0
189,357.0
190,356.0
191,355.0
192,341.0
193,340.0
194,339.0
195,344.0
196,346.0
197,335.0
198,336.0
199,337.0
200,337.0
201,337.0
202,336.0
203,335.0
204,332.0
205,328.0
206,321.0
207,314.0
208,304.0
209,290.0
210,275.0
211,254.0
212,224.0
213,192.0
214,174.0
215,165.0
216,110.0
217,69.0
218,60.0
219,53.0
220,35.0
221,25.0
222,21.0
223,16.0
224,11.0
225,8.0
226,5.0
227,5.0
228,3.0
229,3.0
230,5.0
231,11.0
232,18.0
233,27.0
234,36.0
235,47.0
236,64.0
237,89.0
238,124.0
239,169.0
240,237.0
241,261.0
242,267.0
243,245.0
244,234.0
245,235.0
246,261.0
247,284.0
248,300.0
249,315.0
250,323.0
251,326.0
252,326.0
253,327.0
254,328.0
255,324.0
256,318.0
257,308.0
258,291.0
259,264.0
260,231.0
261,197.0
262,169.0
263,153.0
264,133.0
265,162.0
266,201.0
267,218.0
268,226.0
269,242.0
270,197.0
271,223.0
272,237.0
273,260.0
274,274.0
275,278.0
276,291.0
277,303.0
278,311.0
279,316.0
280,320.0
281,321.0
282,321.0
283,321.0
284,320.0
285,316.0
286,314.0
287,314.0
288,344.0
289,339.0
290,337.0
291,330.0
292,324.0
293,292.0
294,315.0
295,330.0
296,350.0
297,356.0
298,362.0
299,365.0
300,367.0
301,367.0
302,369.0
303,369.0
304,369.0
305,369.0
306,369.0
307,369.0
308,369.0
309,369.0
310,368.0
311,369.0
312,357.0
313,210.0
314,205.0
315,212.0
316,357.0
317,354.0
318,359.0
319,358.0
320,355.0
321,354.0
322,355.0
323,355.0
324,355.0
325,354.0
326,355.0
327,355.0
328,354.0
329,354.0
330,353.0
331,353.0
332,353.0
333,352.0
334,351.0
335,351.0
336,335.0
337,343.0
338,332.0
339,307.0
340,333.0
341,342.0
342,351.0
343,346.0
344,335.0
345,315.0
346,305.0
347,326.0
348,350.0
349,355.0
350,356.0
351,356.0
352,356.0
353,356.0
354,354.0
355,351.0
356,343.0
357,326.0
358,301.0
359,298.0
360,319.0
361,331.0
362,344.0
363,354.0
364,354.0
365,353.0
366,348.0
367,341.0
368,331.0
369,323.0
370,322.0
371,323.0
372,321.0
373,321.0
374,329.0
375,337.0
376,342.0
377,347.0
378,349.0
379,351.0
380,351.0
381,352.0
382,353.0
383,353.0
384,354.0
385,350.0
386,342.0
387,315.0
388,308.0
389,323.0
390,323.0
391,344.0
392,350.0
393,353.0
394,352.0
395,352.0
396,352.0
397,349.0
398,342.0
399,321.0
400,282.0
401,244.0
402,226.0
403,222.0
404,217.0
405,238.0
406,272.0
407,279.0
408,286.0
409,274.0
410,222.0
411,152.0
412,91.0
413,69.0
414,75.0
415,76.0
416,94.0
417,134.0
418,172.0
419,198.0
420,204.0
421,190.0
422,166.0
423,141.0
424,120.0
425,103.0
426,94.0
427,96.0
428,106.0
429,118.0
430,126.0
431,123.0
432,115.0
433,95.0
434,72.0
435,68.0
436,57.0
437,38.0
438,28.0
439,28.0
440,28.0
441,35.0
442,35.0
443,34.0
444,34.0
445,29.0
446,21.0
447,15.0
448,13.0
449,13.0
450,14.0
451,17.0
452,19.0
453,19.0
454,21.0
455,22.0
456,17.0
457,12.0
458,9.0
459,6.0
460,4.0
461,2.0
462,2.0
463,2.0
464,3.0
465,4.0
466,5.0
467,7.0
468,9.0
469,12.0
470,14.0
471,17.0
472,21.0
473,25.0
474,29.0
475,34.0
476,37.0
477,40.0
478,42.0
479,43.0
480,55.0
481,64.0
482,63.0
483,87.0
484,102.0
485,121.0
486,166.0
487,183.0
488,230.0
489,257.0
490,281.0
491,295.0
492,299.0
493,290.0
494,280.0
495,273.0
496,264.0
497,258.0
498,248.0
499,227.0
500,203.0
501,178.0
502,155.0
503,137.0
504,95.0
505,85.0
506,70.0
507,62.0
508,55.0
509,50.0
510,55.0
511,65.0
512,78.0
513,70.0
514,73.0
515,84.0
516,102.0
517,127.0
518,156.0
519,185.0
520,216.0
521,249.0
522,273.0
523,284.0
524,283.0
525,277.0
526,268.0
527,255.0
528,249.0
529,234.0
530,217.0
531,200.0
532,176.0
533,166.0
534,157.0
535,157.0
536,153.0
537,135.0
538,116.0
539,100.0
540,92.0
541,86.0
542,85.0
543,91.0
544,99.0
545,113.0
546,132.0
547,141.0
548,136.0
549,125.0
550,112.0
551,101.0
552,65.0
553,53.0
554,50.0
555,44.0
556,36.0
557,33.0
558,37.0
559,41.0
560,45.0
561,48.0
562,46.0
563,39.0
564,30.0
565,23.0
566,19.0
567,19.0
568,19.0
569,19.0
570,20.0
571,21.0
572,19.0
573,17.0
574,13.0
575,8.0
576,0.0
577,1.0
578,1.0
579,6.0
580,3.0
581,1.0
582,0.0
583,0.0
584,1.0
585,5.0
586,13.0
587,21.0
588,23.0
589,20.0
590,23.0
591,28.0
592,37.0
593,54.0
594,73.0
595,96.0
596,126.0
597,158.0
598,183.0
599,193.0
600,149.0
601,115.0
602,82.0
603,51.0
604,34.0
605,22.0
606,19.0
607,23.0
608,21.0
609,23.0
610,24.0
611,32.0
612,50.0
613,62.0
614,58.0
615,48.0
616,43.0
617,48.0
618,58.0
619,73.0
620,104.0
621,137.0
622,154.0
623,165.0
624,162.0
625,190.0
626,193.0
627,220.0
628,246.0
629,236.0
630,234.0
631,236.0
632,244.0
633,254.0
634,250.0
635,240.0
636,227.0
637,215.0
638,205.0
639,199.0
640,198.0
641,193.0
642,190.0
643,190.0
644,177.0
645,164.0
646,155.0
647,145.0
648,108.0
649,105.0
650,100.0
651,107.0
652,101.0
653,94.0
654,106.0
655,93.0
656,69.0
657,66.0
658,64.0
659,59.0
660,46.0
661,31.0
662,20.0
663,15.0
664,14.0
665,16.0
666,19.0
667,29.0
668,56.0
669,96.0
670,132.0
671,154.0
672,175.0
673,167.0
674,166.0
675,170.0
676,169.0
677,140.0
678,103.0
679,78.0
680,94.0
681,96.0
682,98.0
683,108.0
684,117.0
685,120.0
686,122.0
687,121.0
688,116.0
689,116.0
690,127.0
691,139.0
692,150.0
693,151.0
694,133.0
695,108.0
696,98.0
697,71.0
698,51.0
699,53.0
700,61.0
701,81.0
702,107.0
703,129.0
704,150.0
705,163.0
706,166.0
707,178.0
708,195.0
709,216.0
710,249.0
711,283.0
712,309.0
713,327.0
714,336.0
715,341.0
716,342.0
717,338.0
718,337.0
719,335.0
720,337.0
721,328.0
722,321.0
723,316.0
724,289.0
725,258.0
726,243.0
727,224.0
728,197.0
729,158.0
730,122.0
731,101.0
732,83.0
733,66.0
734,53.0
735,42.0
736,35.0
737,34.0
738,41.0
739,51.0
740,59.0
741,70.0
742,78.0
743,87.0
744,61.0
745,66.0
746,59.0
747,83.0
748,103.0
749,138.0
750,157.0
751,163.0
752,181.0
753,212.0
754,234.0
755,237.0
756,224.0
757,206.0
758,196.0
759,189.0
760,175.0
761,161.0
762,143.0
763,123.0
764,106.0
765,95.0
766,92.0
767,97.0
768,33.0
769,28.0
770,29.0
771,34.0
772,40.0
773,57.0
774,80.0
775,73.0
776,57.0
777,65.0
778,75.0
779,77.0
780,74.0
781,75.0
782,81.0
783,84.0
784,87.0
785,87.0
786,83.0
787,78.0
788,69.0
789,62.0
790,61.0
791,64.0
792,50.0
793,55.0
794,59.0
795,80.0
796,112.0
797,119.0
798,128.0
799,120.0
800,119.0
801,114.0
802,109.0
803,115.0
804,120.0
805,127.0
806,135.0
807,135.0
808,124.0
809,104.0
810,84.0
811,68.0
812,57.0
813,52.0
814,47.0
815,47.0
816,36.0
817,41.0
818,48.0
819,57.0
820,65.0
821,84.0
822,108.0
823,159.0
824,208.0
825,256.0
826,298.0
827,319.0
828,330.0
829,335.0
830,341.0
831,346.0
832,350.0
833,353.0
834,355.0
835,357.0
836,358.0
837,359.0
838,359.0
839,359.0
840,354.0
841,352.0
842,350.0
843,347.0
844,344.0
845,344.0
846,343.0
847,347.0
848,348.0
849,348.0
850,349.0
851,348.0
852,347.0
853,345.0
854,342.0
855,338.0
856,336.0
857,333.0
858,327.0
859,315.0
860,291.0
861,265.0
862,242.0
863,214.0
864,185.0
865,153.0
866,114.0
867,82.0
868,81.0
869,90.0
870,117.0
871,185.0
872,219.0
873,246.0
874,263.0
875,278.0
876,289.0
877,289.0
878,283.0
879,271.0
880,255.0
881,244.0
882,234.0
883,216.0
884,192.0
885,167.0
886,146.0
887,130.0
888,109.0
889,93.0
890,100.0
891,111.0
892,140.0
893,177.0
894,184.0
895,188.0
896,235.0
897,283.0
898,331.0
899,345.0
900,350.0
901,350.0
902,347.0
903,344.0
904,346.0
905,348.0
906,351.0
907,356.0
908,357.0
909,357.0
910,357.0
911,356.0
912,353.0
913,350.0
914,343.0
915,345.0
916,349.0
917,349.0
918,343.0
919,341.0
920,337.0
921,335.0
922,338.0
923,338.0
924,338.0
925,342.0
926,346.0
927,348.0
928,350.0
929,353.0
930,354.0
931,355.0
932,357.0
933,357.0
934,358.0
935,358.0
936,358.0
937,358.0
938,210.0
939,210.0
940,356.0
941,357.0
942,356.0
943,352.0
944,351.0
945,353.0
946,353.0
947,352.0
948,352.0
949,354.0
950,356.0
951,357.0
952,357.0
953,358.0
954,358.0
955,358.0
956,358.0
957,357.0
958,357.0
959,356.0
960,355.0
961,352.0
962,346.0
963,336.0
964,226.0
965,212.0
966,227.0
967,308.0
968,308.0
969,296.0
970,280.0
971,253.0
972,235.0
973,219.0
974,197.0
975,185.0
976,208.0
977,251.0
978,267.0
979,221.0
980,178.0
981,199.0
982,242.0
983,273.0
984,246.0
985,261.0
986,300.0
987,324.0
988,329.0
989,338.0
990,344.0
991,340.0
992,335.0
993,335.0
994,338.0
995,342.0
996,347.0
997,349.0
998,345.0
999,336.0
1000,323.0
1001,313.0
1002,313.0
1003,318.0
1004,320.0
1005,323.0
1006,330.0
1007,335.0
1008,350.0
1009,336.0
1010,316.0
1011,298.0
1012,280.0
1013,243.0
1014,219.0
1015,191.0
1016,172.0
1017,155.0
1018,134.0
1019,118.0
1020,105.0
1021,95.0
1022,88.0
1023,84.0
1024,86.0
1025,101.0
1026,128.0
1027,163.0
1028,207.0
1029,263.0
1030,307.0
1031,330.0
1032,339.0
1033,350.0
1034,346.0
1035,345.0
1036,347.0
1037,346.0
1038,348.0
1039,347.0
1040,343.0
1041,337.0
1042,330.0
1043,326.0
1044,324.0
1045,323.0
1046,325.0
1047,324.0
1048,322.0
1049,315.0
1050,306.0
1051,298.0
1052,293.0
1053,292.0
1054,290.0
1055,281.0
1056,286.0
1057,261.0
1058,238.0
1059,202.0
1060,172.0
1061,181.0
1062,148.0
1063,118.0
1064,115.0
1065,107.0
1066,94.0
1067,81.0
1068,74.0
1069,71.0
1070,71.0
1071,76.0
1072,88.0
1073,101.0
1074,115.0
1075,126.0
1076,130.0
1077,126.0
1078,119.0
1079,111.0
1080,87.0
1081,88.0
1082,87.0
1083,72.0
1084,44.0
1085,27.0
1086,15.0
1087,10.0
1088,14.0
1089,17.0
1090,21.0
1091,24.0
1092,27.0
1093,32.0
1094,40.0
1095,51.0
1096,68.0
1097,93.0
1098,123.0
1099,156.0
1100,186.0
1101,204.0
1102,208.0
1103,202.0
1104,260.0
1105,239.0
1106,225.0
1107,212.0
1108,186.0
1109,177.0
1110,198.0
1111,216.0
1112,219.0
1113,220.0
1114,205.0
1115,181.0
1116,163.0
1117,152.0
1118,161.0
1119,180.0
1120,196.0
1121,211.0
1122,219.0
1123,214.0
1124,206.0
1125,198.0
1126,189.0
1127,179.0
1128,155.0
1129,124.0
1130,93.0
1131,73.0
1132,58.0
1133,41.0
1134,43.0
1135,44.0
1136,38.0
1137,32.0
1138,30.0
1139,30.0
1140,32.0
1141,33.0
1142,29.0
1143,28.0
1144,37.0
1145,59.0
1146,85.0
1147,108.0
1148,125.0
1149,133.0
1150,128.0
1151,118.0
1152,138.0
1153,132.0
1154,99.0
1155,123.0
1156,120.0
1157,94.0
1158,72.0
1159,60.0
1160,56.0
1161,58.0
1162,55.0
1163,49.0
1164,45.0
1165,46.0
1166,51.0
1167,60.0
1168,71.0
1169,86.0
1170,107.0
1171,126.0
1172,131.0
1173,124.0
1174,113.0
1175,104.0
1176,119.0
1177,90.0
1178,66.0
1179,63.0
1180,113.0
1181,162.0
1182,215.0
1183,262.0
1184,256.0
1185,273.0
1186,290.0
1187,300.0
1188,305.0
1189,307.0
1190,307.0
1191,307.0
1192,306.0
1193,314.0
1194,313.0
1195,311.0
1196,311.0
1197,312.0
1198,312.0
1199,312.0
1200,347.0
1201,346.0
1202,345.0
1203,337.0
1204,310.0
1205,266.0
1206,275.0
1207,255.0
1208,241.0
1209,224.0
1210,203.0
1211,193.0
1212,191.0
1213,192.0
1214,188.0
1215,180.0
1216,167.0
1217,149.0
1218,136.0
1219,140.0
1220,162.0
1221,187.0
1222,203.0
1223,213.0
1224,238.0
1225,221.0
1226,234.0
1227,230.0
1228,231.0
1229,235.0
1230,240.0
1231,244.0
1232,272.0
1233,300.0
1234,309.0
1235,311.0
1236,314.0
1237,318.0
1238,322.0
1239,322.0
1240,314.0
1241,296.0
1242,260.0
1243,225.0
1244,196.0
1245,174.0
1246,153.0
1247,133.0
1248,133.0
1249,169.0
1250,247.0
1251,293.0
1252,285.0
1253,253.0
1254,235.0
1255,259.0
1256,239.0
1257,204.0
1258,173.0
1259,147.0
1260,119.0
1261,94.0
1262,77.0
1263,69.0
1264,66.0
1265,72.0
1266,81.0
1267,84.0
1268,84.0
1269,83.0
1270,85.0
1271,94.0
1272,103.0
1273,99.0
1274,88.0
1275,78.0
1276,71.0
1277,59.0
1278,50.0
1279,58.0
1280,98.0
1281,103.0
1282,92.0
1283,80.0
1284,69.0
1285,58.0
1286,49.0
1287,44.0
1288,42.0
1289,47.0
1290,58.0
1291,72.0
1292,91.0
1293,109.0
1294,117.0
1295,109.0
1296,90.0
1297,55.0
1298,45.0
1299,48.0
1300,50.0
1301,44.0
1302,34.0
1303,29.0
1304,25.0
1305,23.0
1306,21.0
1307,23.0
1308,27.0
1309,32.0
1310,38.0
1311,47.0
1312,60.0
1313,79.0
1314,96.0
1315,103.0
1316,99.0
1317,88.0
1318,74.0
1319,63.0
1320,54.0
1321,46.0
1322,63.0
1323,61.0
1324,55.0
1325,41.0
1326,27.0
1327,23.0
1328,27.0
1329,35.0
1330,41.0
1331,48.0
1332,54.0
1333,60.0
1334,73.0
1335,94.0
1336,118.0
1337,148.0
1338,173.0
1339,193.0
1340,210.0
1341,218.0
1342,216.0
1343,208.0
1344,156.0
1345,136.0
1346,116.0
1347,111.0
1348,97.0
1349,51.0
1350,48.0
1351,42.0
1352,39.0
1353,36.0
1354,26.0
1355,20.0
1356,12.0
1357,5.0
1358,7.0
1359,12.0
1360,21.0
1361,37.0
1362,54.0
1363,64.0
1364,65.0
1365,66.0
1366,69.0
1367,72.0
1368,59.0
1369,66.0
1370,79.0
1371,102.0
1372,106.0
1373,117.0
1374,115.0
1375,139.0
1376,162.0
1377,171.0
1378,158.0
1379,148.0
1380,140.0
1381,136.0
1382,133.0
1383,134.0
1384,145.0
1385,175.0
1386,222.0
1387,270.0
1388,303.0
1389,318.0
1390,323.0
1391,323.0
1392,278.0
1393,301.0
1394,304.0
1395,313.0
1396,310.0
1397,279.0
1398,267.0
1399,224.0
1400,188.0
1401,150.0
1402,113.0
1403,85.0
1404,70.0
1405,69.0
1406,74.0
1407,73.0
1408,59.0
1409,42.0
1410,30.0
1411,23.0
1412,22.0
1413,27.0
1414,30.0
1415,27.0
1416,50.0
1417,51.0
1418,41.0
1419,37.0
1420,34.0
1421,33.0
1422,37.0
1423,35.0
1424,33.0
1425,25.0
1426,16.0
1427,11.0
1428,9.0
1429,7.0
1430,5.0
1431,5.0
1432,5.0
1433,6.0
1434,7.0
1435,8.0
1436,11.0
1437,15.0
1438,18.0
1439,19.0
1440,23.0
1441,26.0
1442,29.0
1443,31.0
1444,24.0
1445,16.0
1446,12.0
1447,19.0
1448,25.0
1449,32.0
1450,39.0
1451,48.0
1452,55.0
1453,55.0
1454,49.0
1455,46.0
1456,56.0
1457,78.0
1458,111.0
1459,150.0
1460,182.0
1461,211.0
1462,244.0
1463,273.0
1464,337.0
1465,338.0
1466,302.0
1467,349.0
1468,252.0
1469,349.0
1470,298.0
1471,277.0
1472,352.0
1473,347.0
1474,332.0
1475,302.0
1476,263.0
1477,228.0
1478,203.0
1479,176.0
1480,146.0
1481,112.0
1482,79.0
1483,64.0
1484,83.0
1485,147.0
1486,242.0
1487,304.0
1488,347.0
1489,350.0
1490,207.0
1491,203.0
1492,210.0
1493,352.0
1494,353.0
1495,353.0
1496,354.0
1497,354.0
1498,354.0
1499,352.0
1500,351.0
1501,353.0
1502,353.0
1503,352.0
1504,353.0
1505,355.0
1506,355.0
1507,354.0
1508,350.0
1509,338.0
1510,314.0
1511,284.0
1512,210.0
1513,205.0
1514,93.0
1515,269.0
1516,316.0
1517,337.0
1518,343.0
1519,356.0
1520,355.0
1521,355.0
1522,355.0
1523,355.0
1524,354.0
1525,352.0
1526,351.0
1527,348.0
1528,342.0
1529,338.0
1530,334.0
1531,323.0
1532,299.0
1533,260.0
1534,213.0
1535,161.0
1536,122.0
1537,66.0
1538,61.0
1539,91.0
1540,105.0
1541,120.0
1542,137.0
1543,146.0
1544,162.0
1545,174.0
1546,199.0
1547,241.0
1548,277.0
1549,299.0
1550,311.0
1551,318.0
1552,321.0
1553,327.0
1554,328.0
1555,327.0
1556,325.0
1557,323.0
1558,321.0
1559,319.0
1560,308.0
1561,301.0
1562,327.0
1563,326.0
1564,322.0
1565,313.0
1566,320.0
1567,285.0
1568,262.0
1569,284.0
1570,315.0
1571,331.0
1572,334.0
1573,336.0
1574,335.0
1575,331.0
1576,323.0
1577,307.0
1578,298.0
1579,313.0
1580,330.0
1581,334.0
1582,336.0
1583,339.0
1584,355.0
1585,353.0
1586,353.0
1587,352.0
1588,353.0
1589,352.0
1590,350.0
1591,352.0
1592,352.0
1593,350.0
1594,351.0
1595,351.0
1596,351.0
1597,351.0
1598,351.0
1599,351.0
1600,350.0
1601,349.0
1602,347.0
1603,343.0
1604,332.0
1605,308.0
1606,281.0
1607,272.0
1608,245.0
1609,263.0
1610,271.0
1611,314.0
1612,338.0
1613,343.0
1614,351.0
1615,352.0
1616,356.0
1617,358.0
1618,358.0
1619,358.0
1620,358.0
1621,357.0
1622,355.0
1623,353.0
1624,351.0
1625,351.0
1626,352.0
1627,352.0
1628,354.0
1629,356.0
1630,357.0
1631,352.0
1632,210.0
1633,203.0
1634,203.0
1635,204.0
1636,201.0
1637,331.0
1638,346.0
1639,330.0
1640,309.0
1641,248.0
1642,186.0
1643,138.0
1644,101.0
1645,69.0
1646,48.0
1647,36.0
1648,35.0
1649,46.0
1650,68.0
1651,94.0
1652,126.0
1653,146.0
1654,145.0
1655,131.0
1656,83.0
1657,60.0
1658,44.0
1659,37.0
1660,37.0
1661,41.0
1662,46.0
1663,45.0
1664,43.0
1665,40.0
1666,41.0
1667,44.0
1668,48.0
1669,55.0
1670,62.0
1671,65.0
1672,63.0
1673,64.0
1674,73.0
1675,90.0
1676,113.0
1677,138.0
1678,154.0
1679,158.0
1680,75.0
1681,66.0
1682,58.0
1683,57.0
1684,80.0
1685,110.0
1686,123.0
1687,135.0
1688,139.0
1689,164.0
1690,202.0
1691,235.0
1692,269.0
1693,299.0
1694,318.0
1695,328.0
1696,333.0
1697,336.0
1698,338.0
1699,339.0
1700,340.0
1701,341.0
1702,341.0
1703,340.0
1704,351.0
1705,350.0
1706,342.0
1707,338.0
1708,332.0
1709,342.0
1710,350.0
1711,353.0
1712,353.0
1713,355.0
1714,355.0
1715,355.0
1716,355.0
1717,355.0
1718,355.0
1719,354.0
1720,353.0
1721,353.0
1722,351.0
1723,350.0
1724,349.0
1725,342.0
1726,331.0
1727,329.0
1728,349.0
1729,352.0
1730,352.0
1731,348.0
1732,343.0
1733,322.0
1734,295.0
1735,267.0
1736,291.0
1737,298.0
1738,308.0
1739,326.0
1740,336.0
1741,339.0
1742,340.0
1743,335.0
1744,319.0
1745,284.0
1746,226.0
1747,178.0
1748,180.0
1749,229.0
1750,284.0
1751,316.0
1752,321.0
1753,313.0
1754,320.0
1755,341.0
1756,349.0
1757,337.0
1758,336.0
1759,249.0
1760,208.0
1761,182.0
1762,190.0
1763,216.0
1764,267.0
1765,312.0
1766,340.0
1767,351.0
1768,354.0
1769,355.0
1770,355.0
1771,352.0
1772,350.0
1773,352.0
1774,355.0
1775,355.0
1776,356.0
1777,355.0
1778,354.0
1779,351.0
1780,346.0
1781,349.0
1782,347.0
1783,340.0
1784,328.0
1785,303.0
1786,262.0
1787,208.0
1788,162.0
1789,145.0
1790,156.0
1791,167.0
1792,177.0
1793,208.0
1794,254.0
1795,292.0
1796,319.0
1797,336.0
1798,345.0
1799,347.0
1800,208.0
1801,203.0
1802,202.0
1803,203.0
1804,204.0
1805,204.0
1806,204.0
1807,201.0
1808,187.0
1809,248.0
1810,247.0
1811,257.0
1812,281.0
1813,301.0
1814,313.0
1815,324.0
1816,337.0
1817,346.0
1818,349.0
1819,352.0
1820,354.0
1821,355.0
1822,356.0
1823,356.0
1824,268.0
1825,281.0
1826,282.0
1827,329.0
1828,332.0
1829,324.0
1830,331.0
1831,284.0
1832,330.0
1833,331.0
1834,332.0
1835,332.0
1836,333.0
1837,333.0
1838,332.0
1839,330.0
1840,328.0
1841,345.0
1842,342.0
1843,331.0
1844,310.0
1845,287.0
1846,266.0
1847,247.0
1848,177.0
1849,137.0
1850,113.0
1851,105.0
1852,99.0
1853,81.0
1854,89.0
1855,60.0
1856,48.0
1857,35.0
1858,29.0
1859,28.0
1860,35.0
1861,41.0
1862,45.0
1863,44.0
1864,41.0
1865,40.0
1866,42.0
1867,48.0
1868,63.0
1869,77.0
1870,80.0
1871,75.0
1872,45.0
1873,43.0
1874,69.0
1875,109.0
1876,142.0
1877,197.0
1878,239.0
1879,225.0
1880,226.0
1881,230.0
1882,250.0
1883,264.0
1884,266.0
1885,269.0
1886,271.0
1887,265.0
1888,254.0
1889,242.0
1890,228.0
1891,212.0
1892,194.0
1893,177.0
1894,159.0
1895,146.0
1896,122.0
1897,106.0
1898,121.0
1899,167.0
1900,186.0
1901,186.0
1902,207.0
1903,228.0
1904,239.0
1905,245.0
1906,255.0
1907,267.0
1908,279.0
1909,294.0
1910,317.0
1911,335.0
1912,338.0
1913,333.0
1914,315.0
1915,292.0
1916,271.0
1917,243.0
1918,208.0
1919,171.0
1920,143.0
1921,87.0
1922,69.0
1923,54.0
1924,28.0
1925,9.0
1926,3.0
1927,3.0
1928,5.0
1929,10.0
1930,17.0
1931,23.0
1932,29.0
1933,31.0
1934,28.0
1935,27.0
1936,29.0
1937,35.0
1938,47.0
1939,68.0
1940,102.0
1941,152.0
1942,198.0
1943,228.0
1944,209.0
1945,195.0
1946,197.0
1947,172.0
1948,113.0
1949,71.0
1950,105.0
1951,115.0
1952,128.0
1953,132.0
1954,145.0
1955,161.0
1956,172.0
1957,179.0
1958,178.0
1959,176.0
1960,176.0
1961,175.0
1962,167.0
1963,154.0
1964,142.0
1965,127.0
1966,111.0
1967,97.0
1968,67.0
1969,68.0
1970,78.0
1971,61.0
1972,50.0
1973,34.0
1974,25.0
1975,18.0
1976,18.0
1977,18.0
1978,20.0
1979,24.0
1980,32.0
1981,42.0
1982,47.0
1983,58.0
1984,93.0
1985,140.0
1986,185.0
1987,221.0
1988,240.0
1989,252.0
1990,274.0
1991,297.0
1992,264.0
1993,289.0
1994,315.0
1995,314.0
1996,299.0
1997,282.0
1998,278.0
1999,239.0
2000,217.0
2001,190.0
2002,159.0
2003,144.0
2004,148.0
2005,165.0
2006,188.0
2007,200.0
2008,193.0
2009,172.0
2010,145.0
2011,129.0
2012,119.0
2013,106.0
2014,96.0
2015,102.0
2016,108.0
2017,176.0
2018,276.0
2019,325.0
2020,346.0
2021,346.0
2022,342.0
2023,339.0
2024,342.0
2025,335.0
2026,312.0
2027,268.0
2028,214.0
2029,164.0
2030,128.0
2031,99.0
2032,69.0
2033,41.0
2034,27.0
2035,28.0
2036,50.0
2037,87.0
2038,115.0
2039,123.0
2040,87.0
2041,97.0
2042,147.0
2043,166.0
2044,159.0
2045,170.0
2046,194.0
2047,223.0
2048,238.0
2049,250.0
2050,267.0
2051,280.0
2052,290.0
2053,296.0
2054,300.0
2055,304.0
2056,306.0
2057,301.0
2058,291.0
2059,277.0
2060,258.0
2061,234.0
2062,210.0
2063,187.0
2064,207.0
2065,195.0
2066,190.0
2067,201.0
2068,204.0
2069,183.0
2070,150.0
2071,131.0
2072,108.0
2073,95.0
2074,89.0
2075,87.0
2076,81.0
2077,66.0
2078,53.0
2079,47.0
2080,44.0
2081,48.0
2082,59.0
2083,77.0
2084,97.0
2085,121.0
2086,135.0
2087,130.0
2088,146.0
2089,105.0
2090,90.0
2091,83.0
2092,94.0
2093,107.0
2094,123.0
2095,136.0
2096,128.0
2097,124.0
2098,118.0
2099,121.0
2100,129.0
2101,135.0
2102,136.0
2103,132.0
2104,131.0
2105,135.0
2106,139.0
2107,140.0
2108,139.0
2109,131.0
2110,117.0
2111,103.0
2112,57.0
2113,46.0
2114,43.0
2115,43.0
2116,47.0
2117,57.0
2118,70.0
2119,80.0
2120,77.0
2121,85.0
2122,82.0
2123,77.0
2124,72.0
2125,65.0
2126,59.0
2127,65.0
2128,79.0
2129,113.0
2130,163.0
2131,209.0
2132,231.0
2133,226.0
2134,217.0
2135,208.0
2136,185.0
2137,190.0
2138,187.0
2139,184.0
2140,180.0
2141,177.0
2142,210.0
2143,236.0
2144,239.0
2145,238.0
2146,229.0
2147,204.0
2148,172.0
2149,141.0
2150,116.0
2151,96.0
2152,81.0
2153,70.0
2154,59.0
2155,49.0
2156,40.0
2157,35.0
2158,32.0
2159,28.0
2160,20.0
2161,20.0
2162,17.0
2163,11.0
2164,8.0
2165,7.0
2166,7.0
2167,7.0
2168,8.0
2169,9.0
2170,10.0
2171,13.0
2172,15.0
2173,18.0
2174,25.0
2175,39.0
2176,64.0
2177,98.0
2178,129.0
2179,158.0
2180,186.0
2181,212.0
2182,230.0
2183,245.0
2184,232.0
2185,241.0
2186,256.0
2187,282.0
2188,297.0
2189,310.0
2190,318.0
2191,333.0
2192,331.0
2193,318.0
2194,304.0
2195,280.0
2196,253.0
2197,240.0
2198,241.0
2199,252.0
2200,262.0
2201,278.0
2202,302.0
2203,323.0
2204,334.0
2205,337.0
2206,337.0
2207,333.0
2208,236.0
2209,279.0
2210,261.0
2211,207.0
2212,189.0
2213,182.0
2214,152.0
2215,95.0
2216,96.0
2217,75.0
2218,64.0
2219,60.0
2220,48.0
2221,34.0
2222,36.0
2223,50.0
2224,62.0
2225,71.0
2226,75.0
2227,74.0
2228,85.0
2229,109.0
2230,132.0
2231,150.0
2232,167.0
2233,214.0
2234,236.0
2235,239.0
2236,220.0
2237,200.0
2238,166.0
2239,142.0
2240,116.0
2241,96.0
2242,83.0
2243,85.0
2244,99.0
2245,128.0
2246,172.0
2247,209.0
2248,236.0
2249,251.0
2250,253.0
2251,240.0
2252,214.0
2253,194.0
2254,189.0
2255,188.0
2256,134.0
2257,126.0
2258,117.0
2259,97.0
2260,103.0
2261,92.0
2262,99.0
2263,102.0
2264,116.0
2265,133.0
2266,152.0
2267,176.0
2268,206.0
2269,237.0
2270,271.0
2271,297.0
2272,311.0
2273,314.0
2274,302.0
2275,262.0
2276,194.0
2277,130.0
2278,85.0
2279,57.0
2280,39.0
2281,19.0
2282,5.0
2283,2.0
2284,10.0
2285,18.0
2286,32.0
2287,61.0
2288,66.0
2289,81.0
2290,101.0
2291,101.0
2292,105.0
2293,127.0
2294,163.0
2295,201.0
2296,227.0
2297,240.0
2298,241.0
2299,237.0
2300,231.0
2301,217.0
2302,196.0
2303,169.0
2304,89.0
2305,87.0
2306,65.0
2307,64.0
2308,60.0
2309,47.0
2310,42.0
2311,37.0
2312,26.0
2313,22.0
2314,18.0
2315,15.0
2316,14.0
2317,15.0
2318,16.0
2319,17.0
2320,20.0
2321,23.0
2322,25.0
2323,26.0
2324,23.0
2325,19.0
2326,15.0
2327,11.0
2328,2.0
2329,3.0
2330,5.0
2331,16.0
2332,29.0
2333,49.0
2334,72.0
2335,100.0
2336,123.0
2337,141.0
2338,169.0
2339,197.0
2340,219.0
2341,227.0
2342,218.0
2343,195.0
2344,164.0
2345,129.0
2346,101.0
2347,82.0
2348,69.0
2349,58.0
2350,52.0
2351,47.0
2352,41.0
2353,37.0
2354,34.0
2355,25.0
2356,19.0
2357,11.0
2358,4.0
2359,4.0
2360,5.0
2361,10.0
2362,22.0
2363,34.0
2364,35.0
2365,32.0
2366,30.0
2367,31.0
2368,31.0
2369,31.0
2370,30.0
2371,30.0
2372,30.0
2373,33.0
2374,40.0
2375,44.0
2376,55.0
2377,43.0
2378,28.0
2379,18.0
2380,14.0
2381,14.0
2382,21.0
2383,18.0
2384,8.0
2385,6.0
2386,5.0
2387,4.0
2388,7.0
2389,11.0
2390,16.0
2391,20.0
2392,28.0
2393,38.0
2394,42.0
2395,39.0
2396,35.0
2397,30.0
2398,26.0
2399,24.0
2400,41.0
2401,36.0
2402,32.0
2403,28.0
2404,24.0
2405,21.0
2406,20.0
2407,19.0
2408,36.0
2409,32.0
2410,23.0
2411,20.0
2412,21.0
2413,23.0
2414,26.0
2415,29.0
2416,32.0
2417,35.0
2418,38.0
2419,39.0
2420,39.0
2421,39.0
2422,37.0
2423,35.0
2424,34.0
2425,30.0
2426,30.0
2427,39.0
2428,48.0
2429,70.0
2430,76.0
2431,81.0
2432,80.0
2433,95.0
2434,100.0
2435,99.0
2436,97.0
2437,94.0
2438,94.0
2439,99.0
2440,104.0
2441,102.0
2442,99.0
2443,95.0
2444,95.0
2445,98.0
2446,105.0
2447,107.0
2448,204.0
2449,179.0
2450,188.0
2451,186.0
2452,204.0
2453,197.0
2454,216.0
2455,213.0
2456,214.0
2457,245.0
2458,280.0
2459,301.0
2460,319.0
2461,329.0
2462,333.0
2463,332.0
2464,332.0
2465,334.0
2466,333.0
2467,332.0
2468,333.0
2469,333.0
2470,329.0
2471,320.0
2472,298.0
2473,285.0
2474,269.0
2475,258.0
2476,248.0
2477,239.0
2478,223.0
2479,224.0
2480,253.0
2481,282.0
2482,310.0
2483,329.0
2484,338.0
2485,342.0
2486,344.0
2487,345.0
2488,346.0
2489,347.0
2490,347.0
2491,345.0
2492,344.0
2493,343.0
2494,341.0
2495,335.0
2496,319.0
2497,302.0
2498,281.0
2499,249.0
2500,215.0
2501,184.0
2502,153.0
2503,150.0
2504,177.0
2505,201.0
2506,221.0
2507,248.0
2508,269.0
2509,279.0
2510,282.0
2511,279.0
2512,274.0
2513,277.0
2514,286.0
2515,290.0
2516,289.0
2517,284.0
2518,276.0
2519,270.0
2520,263.0
2521,252.0
2522,257.0
2523,245.0
2524,218.0
2525,206.0
2526,176.0
2527,165.0
2528,160.0
2529,154.0
2530,149.0
2531,154.0
2532,170.0
2533,195.0
2534,234.0
2535,272.0
2536,300.0
2537,321.0
2538,336.0
2539,343.0
2540,348.0
2541,351.0
2542,349.0
2543,344.0
2544,322.0
2545,309.0
2546,259.0
2547,235.0
2548,199.0
2549,210.0
2550,178.0
2551,150.0
2552,133.0
2553,113.0
2554,100.0
2555,94.0
2556,99.0
2557,112.0
2558,125.0
2559,137.0
2560,149.0
2561,159.0
2562,164.0
2563,163.0
2564,152.0
2565,138.0
2566,129.0
2567,125.0
2568,142.0
2569,149.0
2570,135.0
2571,159.0
2572,171.0
2573,180.0
2574,175.0
2575,177.0
2576,147.0
2577,143.0
2578,149.0
2579,153.0
2580,160.0
2581,171.0
2582,181.0
2583,192.0
2584,198.0
2585,199.0
2586,193.0
2587,189.0
2588,185.0
2589,176.0
2590,164.0
2591,153.0
2592,118.0
2593,119.0
2594,146.0
2595,162.0
2596,172.0
2597,179.0
2598,165.0
2599,161.0
2600,153.0
2601,146.0
2602,142.0
2603,140.0
2604,143.0
2605,147.0
2606,149.0
2607,144.0
2608,138.0
2609,130.0
2610,115.0
2611,95.0
2612,78.0
2613,60.0
2614,46.0
2615,38.0
2616,24.0
2617,23.0
2618,23.0
2619,21.0
2620,23.0
2621,15.0
2622,14.0
2623,15.0
2624,15.0
2625,13.0
2626,9.0
2627,7.0
2628,6.0
2629,5.0
2630,6.0
2631,7.0
2632,8.0
2633,8.0
2634,8.0
2635,6.0
2636,6.0
2637,5.0
2638,5.0
2639,4.0
2640,2.0
2641,0.0
2642,0.0
2643,0.0
2644,0.0
2645,0.0
2646,0.0
2647,1.0
2648,1.0
2649,1.0
2650,2.0
2651,2.0
2652,1.0
2653,1.0
2654,2.0
2655,3.0
2656,3.0
2657,5.0
2658,6.0
2659,9.0
2660,14.0
2661,20.0
2662,25.0
2663,30.0
2664,42.0
2665,32.0
2666,34.0
2667,32.0
2668,29.0
2669,21.0
2670,17.0
2671,29.0
2672,46.0
2673,67.0
2674,99.0
2675,143.0
2676,194.0
2677,248.0
2678,297.0
2679,333.0
2680,349.0
2681,352.0
2682,352.0
2683,352.0
2684,350.0
2685,346.0
2686,341.0
2687,204.0
2688,323.0
2689,305.0
2690,333.0
2691,208.0
2692,342.0
2693,329.0
2694,333.0
2695,343.0
2696,348.0
2697,349.0
2698,350.0
2699,352.0
2700,353.0
2701,355.0
2702,355.0
2703,356.0
2704,356.0
2705,356.0
2706,355.0
2707,355.0
2708,355.0
2709,355.0
2710,355.0
2711,355.0
2712,244.0
2713,248.0
2714,247.0
2715,239.0
2716,238.0
2717,336.0
2718,339.0
2719,270.0
2720,321.0
2721,298.0
2722,259.0
2723,217.0
2724,177.0
2725,147.0
2726,135.0
2727,138.0
2728,149.0
2729,158.0
2730,166.0
2731,181.0
2732,205.0
2733,224.0
2734,227.0
2735,222.0
2736,217.0
2737,159.0
2738,174.0
2739,213.0
2740,164.0
2741,98.0
2742,88.0
2743,178.0
2744,171.0
2745,123.0
2746,85.0
2747,59.0
2748,39.0
2749,23.0
2750,13.0
2751,9.0
2752,10.0
2753,23.0
2754,52.0
2755,99.0
2756,147.0
2757,177.0
2758,195.0
2759,207.0
2760,249.0
2761,257.0
2762,272.0
2763,282.0
2764,290.0
2765,307.0
2766,307.0
2767,298.0
2768,261.0
2769,218.0
2770,156.0
2771,112.0
2772,81.0
2773,57.0
2774,39.0
2775,37.0
2776,86.0
2777,169.0
2778,232.0
2779,277.0
2780,299.0
2781,294.0
2782,278.0
2783,263.0
2784,302.0
2785,293.0
2786,262.0
2787,171.0
2788,161.0
2789,125.0
2790,88.0
2791,54.0
2792,37.0
2793,25.0
2794,15.0
2795,10.0
2796,7.0
2797,7.0
2798,7.0
2799,9.0
2800,12.0
2801,19.0
2802,30.0
2803,38.0
2804,41.0
2805,36.0
2806,36.0
2807,41.0
2808,31.0
2809,44.0
2810,54.0
2811,58.0
2812,52.0
2813,43.0
2814,31.0
2815,21.0
2816,17.0
2817,13.0
2818,10.0
2819,10.0
2820,10.0
2821,12.0
2822,16.0
2823,25.0
2824,38.0
2825,52.0
2826,63.0
2827,73.0
2828,80.0
2829,87.0
2830,92.0
2831,90.0
2832,93.0
2833,81.0
2834,76.0
2835,81.0
2836,73.0
2837,60.0
2838,57.0
2839,65.0
2840,67.0
2841,76.0
2842,85.0
2843,92.0
2844,107.0
2845,124.0
2846,134.0
2847,136.0
2848,124.0
2849,100.0
2850,71.0
2851,51.0
2852,37.0
2853,29.0
2854,23.0
2855,16.0
2856,4.0
2857,1.0
2858,1.0
2859,2.0
2860,3.0
2861,7.0
2862,6.0
2863,3.0
2864,2.0
2865,2.0
2866,3.0
2867,4.0
2868,6.0
2869,11.0
2870,18.0
2871,24.0
2872,32.0
2873,47.0
2874,67.0
2875,93.0
2876,110.0
2877,123.0
2878,130.0
2879,128.0
2880,190.0
2881,180.0
2882,176.0
2883,197.0
2884,203.0
2885,240.0
2886,251.0
2887,287.0
2888,288.0
2889,288.0
2890,308.0
2891,329.0
2892,339.0
2893,345.0
2894,350.0
2895,351.0
2896,353.0
2897,354.0
2898,354.0
2899,354.0
2900,354.0
2901,355.0
2902,356.0
2903,356.0
2904,360.0
2905,361.0
2906,362.0
2907,362.0
2908,358.0
2909,359.0
2910,352.0
2911,351.0
2912,319.0
2913,360.0
2914,362.0
2915,363.0
2916,363.0
2917,363.0
2918,363.0
2919,362.0
2920,362.0
2921,360.0
2922,359.0
2923,359.0
2924,358.0
2925,357.0
2926,355.0
2927,353.0
2928,354.0
2929,352.0
2930,339.0
2931,329.0
2932,296.0
2933,286.0
2934,279.0
2935,249.0
2936,261.0
2937,276.0
2938,285.0
2939,296.0
2940,305.0
2941,301.0
2942,309.0
2943,327.0
2944,326.0
2945,327.0
2946,330.0
2947,328.0
2948,325.0
2949,319.0
2950,313.0
2951,313.0
2952,337.0
2953,336.0
2954,326.0
2955,332.0
2956,326.0
2957,317.0
2958,272.0
2959,241.0
2960,203.0
2961,159.0
2962,118.0
2963,89.0
2964,78.0
2965,83.0
2966,96.0
2967,93.0
2968,85.0
2969,86.0
2970,88.0
2971,82.0
2972,68.0
2973,51.0
2974,35.0
2975,25.0
2976,30.0
2977,41.0
2978,46.0
2979,55.0
2980,57.0
2981,50.0
2982,36.0
2983,22.0
2984,21.0
2985,27.0
2986,33.0
2987,35.0
2988,34.0
2989,34.0
2990,38.0
2991,52.0
2992,75.0
2993,106.0
2994,140.0
2995,164.0
2996,184.0
2997,205.0
2998,215.0
2999,214.0
3000,209.0
3001,214.0
3002,227.0
3003,220.0
3004,230.0
3005,235.0
3006,270.0
3007,300.0
3008,288.0
3009,267.0
3010,254.0
3011,262.0
3012,275.0
3013,284.0
3014,291.0
3015,296.0
3016,295.0
3017,296.0
3018,299.0
3019,298.0
3020,290.0
3021,281.0
3022,276.0
3023,273.0
3024,287.0
3025,286.0
3026,286.0
3027,293.0
3028,303.0
3029,304.0
3030,319.0
3031,304.0
3032,290.0
3033,265.0
3034,236.0
3035,211.0
3036,197.0
3037,185.0
3038,165.0
3039,147.0
3040,123.0
3041,92.0
3042,65.0
3043,45.0
3044,29.0
3045,20.0
3046,14.0
3047,10.0
3048,10.0
3049,23.0
3050,51.0
3051,79.0
3052,95.0
3053,99.0
3054,89.0
3055,91.0
3056,78.0
3057,70.0
3058,60.0
3059,46.0
3060,37.0
3061,35.0
3062,40.0
3063,55.0
3064,82.0
3065,124.0
3066,185.0
3067,241.0
3068,259.0
3069,261.0
3070,270.0
3071,269.0
3072,209.0
3073,166.0
3074,130.0
3075,100.0
3076,63.0
3077,43.0
3078,33.0
3079,22.0
3080,26.0
3081,26.0
3082,25.0
3083,22.0
3084,19.0
3085,14.0
3086,11.0
3087,10.0
3088,12.0
3089,17.0
3090,29.0
3091,41.0
3092,47.0
3093,46.0
3094,41.0
3095,36.0
3096,60.0
3097,50.0
3098,50.0
3099,78.0
3100,56.0
3101,23.0
3102,13.0
3103,9.0
3104,16.0
3105,19.0
3106,20.0
3107,29.0
3108,39.0
3109,48.0
3110,72.0
3111,101.0
3112,126.0
3113,144.0
3114,151.0
3115,150.0
3116,144.0
3117,131.0
3118,118.0
3119,108.0
3120,73.0
3121,50.0
3122,47.0
3123,36.0
3124,29.0
3125,26.0
3126,26.0
3127,20.0
3128,13.0
3129,10.0
3130,8.0
3131,8.0
3132,10.0
3133,14.0
3134,22.0
3135,32.0
3136,45.0
3137,55.0
3138,66.0
3139,77.0
3140,94.0
3141,112.0
3142,130.0
3143,146.0
3144,142.0
3145,181.0
3146,185.0
3147,186.0
3148,190.0
3149,223.0
3150,207.0
3151,191.0
3152,176.0
3153,173.0
3154,175.0
3155,189.0
3156,206.0
3157,211.0
3158,104.0
3159,94.0
3160,94.0
3161,164.0
3162,172.0
3163,173.0
3164,174.0
3165,176.0
3166,172.0
3167,157.0
3168,138.0
3169,138.0
3170,91.0
3171,82.0
3172,68.0
3173,80.0
3174,97.0
3175,87.0
3176,75.0
3177,81.0
3178,85.0
3179,91.0
3180,99.0
3181,101.0
3182,99.0
3183,94.0
3184,87.0
3185,82.0
3186,81.0
3187,75.0
3188,62.0
3189,48.0
3190,46.0
3191,44.0
3192,61.0
3193,58.0
3194,42.0
3195,27.0
3196,17.0
3197,10.0
3198,8.0
3199,7.0
3200,8.0
3201,11.0
3202,9.0
3203,9.0
3204,10.0
3205,11.0
3206,10.0
3207,9.0
3208,8.0
3209,7.0
3210,6.0
3211,6.0
3212,6.0
3213,8.0
3214,11.0
3215,13.0
3216,10.0
3217,12.0
3218,13.0
3219,13.0
3220,13.0
3221,19.0
3222,30.0
3223,37.0
3224,38.0
3225,40.0
3226,42.0
3227,44.0
3228,47.0
3229,50.0
3230,53.0
3231,58.0
3232,64.0
3233,64.0
3234,60.0
3235,63.0
3236,70.0
3237,80.0
3238,92.0
3239,104.0
3240,78.0
3241,92.0
3242,118.0
3243,146.0
3244,168.0
3245,166.0
3246,152.0
3247,148.0
3248,155.0
3249,203.0
3250,260.0
3251,293.0
3252,321.0
3253,345.0
3254,356.0
3255,359.0
3256,362.0
3257,363.0
3258,363.0
3259,362.0
3260,361.0
3261,359.0
3262,354.0
3263,347.0
3264,352.0
3265,332.0
3266,308.0
3267,281.0
3268,220.0
3269,206.0
3270,159.0
3271,129.0
3272,99.0
3273,104.0
3274,105.0
3275,102.0
3276,97.0
3277,93.0
3278,92.0
3279,93.0
3280,90.0
3281,84.0
3282,76.0
3283,70.0
3284,62.0
3285,54.0
3286,50.0
3287,48.0
3288,48.0
3289,42.0
3290,44.0
3291,43.0
3292,57.0
3293,70.0
3294,81.0
3295,98.0
3296,101.0
3297,89.0
3298,94.0
3299,107.0
3300,134.0
3301,167.0
3302,197.0
3303,222.0
3304,238.0
3305,239.0
3306,231.0
3307,212.0
3308,188.0
3309,152.0
3310,115.0
3311,93.0
3312,122.0
3313,126.0
3314,136.0
3315,142.0
3316,169.0
3317,171.0
3318,163.0
3319,199.0
3320,150.0
3321,127.0
3322,115.0
3323,126.0
3324,148.0
3325,169.0
3326,184.0
3327,191.0
3328,197.0
3329,200.0
3330,194.0
3331,177.0
3332,149.0
3333,118.0
3334,97.0
3335,80.0
3336,100.0
3337,78.0
3338,65.0
3339,39.0
3340,39.0
3341,50.0
3342,44.0
3343,51.0
3344,55.0
3345,46.0
3346,38.0
3347,39.0
3348,41.0
3349,46.0
3350,56.0
3351,65.0
3352,73.0
3353,78.0
3354,82.0
3355,82.0
3356,78.0
3357,80.0
3358,83.0
3359,89.0
3360,124.0
3361,153.0
3362,132.0
3363,110.0
3364,61.0
3365,49.0
3366,25.0
3367,14.0
3368,14.0
3369,8.0
3370,4.0
3371,3.0
3372,3.0
3373,3.0
3374,3.0
3375,3.0
3376,6.0
3377,8.0
3378,11.0
3379,14.0
3380,15.0
3381,16.0
3382,19.0
3383,21.0
3384,37.0
3385,77.0
3386,143.0
3387,179.0
3388,165.0
3389,187.0
3390,246.0
3391,254.0
3392,284.0
3393,275.0
3394,260.0
3395,262.0
3396,268.0
3397,273.0
3398,277.0
3399,279.0
3400,274.0
3401,258.0
3402,235.0
3403,215.0
3404,218.0
3405,232.0
3406,233.0
3407,220.0
3408,183.0
3409,142.0
3410,104.0
3411,65.0
3412,48.0
3413,37.0
3414,50.0
3415,59.0
3416,60.0
3417,52.0
3418,40.0
3419,33.0
3420,29.0
3421,29.0
3422,30.0
3423,31.0
3424,32.0
3425,33.0
3426,36.0
3427,43.0
3428,57.0
3429,72.0
3430,84.0
3431,85.0
3432,158.0
3433,208.0
3434,231.0
3435,152.0
3436,125.0
3437,112.0
3438,82.0
3439,49.0
3440,38.0
3441,43.0
3442,58.0
3443,85.0
3444,117.0
3445,130.0
3446,136.0
3447,175.0
3448,228.0
3449,247.0
3450,236.0
3451,213.0
3452,185.0
3453,163.0
3454,154.0
3455,146.0
3456,187.0
3457,175.0
3458,158.0
3459,114.0
3460,129.0
3461,136.0
3462,131.0
3463,133.0
3464,144.0
3465,157.0
3466,158.0
3467,148.0
3468,137.0
3469,130.0
3470,142.0
3471,183.0
3472,222.0
3473,241.0
3474,243.0
3475,243.0
3476,241.0
3477,238.0
3478,228.0
3479,210.0
3480,220.0
3481,236.0
3482,232.0
3483,212.0
3484,207.0
3485,179.0
3486,181.0
3487,227.0
3488,257.0
3489,279.0
3490,300.0
3491,319.0
3492,329.0
3493,328.0
3494,314.0
3495,282.0
3496,237.0
3497,195.0
3498,168.0
3499,158.0
3500,174.0
3501,207.0
3502,234.0
3503,249.0
3504,288.0
3505,291.0
3506,289.0
3507,309.0
3508,315.0
3509,309.0
3510,299.0
3511,260.0
3512,236.0
3513,228.0
3514,207.0
3515,182.0
3516,167.0
3517,170.0
3518,172.0
3519,152.0
3520,132.0
3521,124.0
3522,116.0
3523,110.0
3524,107.0
3525,109.0
3526,117.0
3527,121.0
3528,99.0
3529,97.0
3530,108.0
3531,88.0
3532,88.0
3533,74.0
3534,64.0
3535,73.0
3536,55.0
3537,42.0
3538,36.0
3539,37.0
3540,45.0
3541,56.0
3542,62.0
3543,62.0
3544,61.0
3545,63.0
3546,70.0
3547,82.0
3548,96.0
3549,109.0
3550,128.0
3551,151.0
3552,83.0
3553,78.0
3554,66.0
3555,59.0
3556,57.0
3557,71.0
3558,39.0
3559,32.0
3560,34.0
3561,28.0
3562,24.0
3563,23.0
3564,24.0
3565,23.0
3566,19.0
3567,14.0
3568,11.0
3569,10.0
3570,9.0
3571,9.0
3572,9.0
3573,10.0
3574,11.0
3575,15.0
3576,63.0
3577,104.0
3578,148.0
3579,160.0
3580,167.0
3581,196.0
3582,249.0
3583,295.0
3584,282.0
3585,287.0
3586,290.0
3587,292.0
3588,297.0
3589,306.0
3590,309.0
3591,307.0
3592,294.0
3593,274.0
3594,251.0
3595,228.0
3596,211.0
3597,194.0
3598,180.0
3599,171.0
3600,165.0
3601,174.0
3602,198.0
3603,224.0
3604,241.0
3605,238.0
3606,218.0
3607,208.0
3608,192.0
3609,179.0
3610,144.0
3611,110.0
3612,80.0
3613,60.0
3614,52.0
3615,54.0
3616,57.0
3617,57.0
3618,51.0
3619,42.0
3620,34.0
3621,32.0
3622,36.0
3623,40.0
3624,51.0
3625,69.0
3626,115.0
3627,130.0
3628,110.0
3629,101.0
3630,88.0
3631,103.0
3632,130.0
3633,126.0
3634,135.0
3635,134.0
3636,125.0
3637,124.0
3638,145.0
3639,194.0
3640,237.0
3641,256.0
3642,245.0
3643,208.0
3644,167.0
3645,131.0
3646,95.0
3647,67.0
3648,31.0
3649,15.0
3650,6.0
3651,3.0
3652,3.0
3653,5.0
3654,1.0
3655,3.0
3656,6.0
3657,10.0
3658,15.0
3659,22.0
3660,33.0
3661,48.0
3662,75.0
3663,112.0
3664,142.0
3665,156.0
3666,159.0
3667,161.0
3668,164.0
3669,166.0
3670,175.0
3671,191.0
3672,235.0
3673,257.0
3674,277.0
3675,290.0
3676,290.0
3677,264.0
3678,216.0
3679,165.0
3680,113.0
3681,73.0
3682,58.0
3683,49.0
3684,40.0
3685,39.0
3686,47.0
3687,65.0
3688,80.0
3689,87.0
3690,81.0
3691,67.0
3692,55.0
3693,52.0
3694,51.0
3695,49.0
3696,12.0
3697,11.0
3698,15.0
3699,4.0
3700,4.0
3701,2.0
3702,1.0
3703,1.0
3704,1.0
3705,2.0
3706,3.0
3707,4.0
3708,5.0
3709,11.0
3710,24.0
3711,45.0
3712,73.0
3713,108.0
3714,145.0
3715,180.0
3716,204.0
3717,220.0
3718,239.0
3719,249.0
3720,200.0
3721,176.0
3722,175.0
3723,215.0
3724,238.0
3725,299.0
3726,282.0
3727,284.0
3728,222.0
3729,137.0
3730,54.0
3731,20.0
3732,10.0
3733,8.0
3734,11.0
3735,21.0
3736,40.0
3737,66.0
3738,103.0
3739,151.0
3740,209.0
3741,258.0
3742,288.0
3743,305.0
3744,277.0
3745,263.0
3746,291.0
3747,192.0
3748,174.0
3749,159.0
3750,228.0
3751,180.0
3752,280.0
3753,275.0
3754,256.0
3755,225.0
3756,202.0
3757,204.0
3758,219.0
3759,243.0
3760,305.0
3761,331.0
3762,318.0
3763,276.0
3764,243.0
3765,236.0
3766,227.0
3767,216.0
3768,212.0
3769,187.0
3770,154.0
3771,125.0
3772,94.0
3773,74.0
3774,45.0
3775,28.0
3776,8.0
3777,6.0
3778,5.0
3779,5.0
3780,4.0
3781,4.0
3782,5.0
3783,6.0
3784,7.0
3785,12.0
3786,24.0
3787,47.0
3788,85.0
3789,134.0
3790,178.0
3791,208.0
3792,204.0
3793,193.0
3794,201.0
3795,113.0
3796,94.0
3797,70.0
3798,120.0
3799,175.0
3800,243.0
3801,281.0
3802,310.0
3803,319.0
3804,318.0
3805,315.0
3806,319.0
3807,330.0
3808,331.0
3809,323.0
3810,312.0
3811,304.0
3812,306.0
3813,316.0
3814,339.0
3815,354.0
3816,236.0
3817,254.0
3818,316.0
3819,323.0
3820,328.0
3821,323.0
3822,319.0
3823,309.0
3824,290.0
3825,237.0
3826,176.0
3827,120.0
3828,74.0
3829,43.0
3830,22.0
3831,10.0
3832,7.0
3833,6.0
3834,6.0
3835,6.0
3836,8.0
3837,15.0
3838,26.0
3839,38.0
3840,65.0
3841,76.0
3842,88.0
3843,143.0
3844,197.0
3845,236.0
3846,265.0
3847,281.0
3848,284.0
3849,274.0
3850,267.0
3851,261.0
3852,262.0
3853,273.0
3854,283.0
3855,297.0
3856,307.0
3857,303.0
3858,290.0
3859,277.0
3860,271.0
3861,268.0
3862,259.0
3863,249.0
3864,243.0
3865,232.0
3866,218.0
3867,220.0
3868,213.0
3869,206.0
3870,190.0
3871,178.0
3872,162.0
3873,139.0
3874,131.0
3875,119.0
3876,108.0
3877,94.0
3878,68.0
3879,52.0
3880,47.0
3881,41.0
3882,30.0
3883,24.0
3884,25.0
3885,28.0
3886,31.0
3887,37.0
3888,147.0
3889,150.0
3890,166.0
3891,130.0
3892,163.0
3893,157.0
3894,173.0
3895,221.0
3896,165.0
3897,200.0
3898,155.0
3899,161.0
3900,165.0
3901,158.0
3902,142.0
3903,128.0
3904,98.0
3905,59.0
3906,32.0
3907,20.0
3908,19.0
3909,38.0
3910,73.0
3911,106.0
3912,135.0
3913,183.0
3914,149.0
3915,112.0
3916,89.0
3917,47.0
3918,33.0
3919,34.0
3920,35.0
3921,35.0
3922,40.0
3923,49.0
3924,52.0
3925,51.0
3926,50.0
3927,52.0
3928,51.0
3929,45.0
3930,41.0
3931,39.0
3932,36.0
3933,42.0
3934,63.0
3935,74.0
3936,64.0
3937,130.0
3938,79.0
3939,119.0
3940,95.0
3941,80.0
3942,59.0
3943,39.0
3944,19.0
3945,15.0
3946,14.0
3947,21.0
3948,37.0
3949,61.0
3950,77.0
3951,83.0
3952,96.0
3953,127.0
3954,186.0
3955,270.0
3956,326.0
3957,334.0
3958,335.0
3959,331.0
3960,175.0
3961,148.0
3962,131.0
3963,121.0
3964,121.0
3965,123.0
3966,145.0
3967,197.0
3968,253.0
3969,252.0
3970,271.0
3971,302.0
3972,329.0
3973,353.0
3974,358.0
3975,349.0
3976,311.0
3977,236.0
3978,148.0
3979,115.0
3980,140.0
3981,190.0
3982,234.0
3983,269.0
3984,215.0
3985,272.0
3986,272.0
3987,276.0
3988,277.0
3989,253.0
3990,225.0
3991,159.0
3992,118.0
3993,104.0
3994,88.0
3995,75.0
3996,64.0
3997,55.0
3998,44.0
3999,34.0
4000,26.0
4001,21.0
4002,17.0
4003,18.0
4004,20.0
4005,21.0
4006,21.0
4007,24.0
4008,26.0
4009,33.0
4010,30.0
4011,17.0
4012,15.0
4013,15.0
4014,8.0
4015,3.0
4016,4.0
4017,5.0
4018,8.0
4019,11.0
4020,12.0
4021,11.0
4022,9.0
4023,7.0
4024,7.0
4025,7.0
4026,7.0
4027,9.0
4028,16.0
4029,33.0
4030,69.0
4031,113.0
4032,150.0
4033,181.0
4034,190.0
4035,188.0
4036,187.0
4037,179.0
4038,169.0
4039,107.0
4040,89.0
4041,73.0
4042,59.0
4043,52.0
4044,49.0
4045,48.0
4046,42.0
4047,34.0
4048,32.0
4049,33.0
4050,35.0
4051,39.0
4052,41.0
4053,42.0
4054,44.0
4055,49.0
4056,56.0
4057,48.0
4058,50.0
4059,46.0
4060,41.0
4061,39.0
4062,28.0
4063,16.0
4064,13.0
4065,15.0
4066,22.0
4067,30.0
4068,34.0
4069,36.0
4070,40.0
4071,47.0
4072,53.0
4073,58.0
4074,63.0
4075,74.0
4076,67.0
4077,55.0
4078,60.0
4079,58.0
4080,34.0
4081,58.0
4082,44.0
4083,34.0
4084,29.0
4085,18.0
4086,26.0
4087,53.0
4088,85.0
4089,72.0
4090,63.0
4091,56.0
4092,55.0
4093,63.0
4094,73.0
4095,82.0
4096,96.0
4097,80.0
4098,64.0
4099,50.0
4100,40.0
4101,31.0
4102,24.0
4103,21.0
4104,7.0
4105,4.0
4106,6.0
4107,7.0
4108,8.0
4109,10.0
4110,19.0
4111,22.0
4112,18.0
4113,18.0
4114,19.0
4115,18.0
4116,15.0
4117,14.0
4118,16.0
4119,24.0
4120,35.0
4121,46.0
4122,64.0
4123,79.0
4124,82.0
4125,78.0
4126,73.0
4127,70.0
4128,46.0
4129,53.0
4130,49.0
4131,45.0
4132,37.0
4133,24.0
4134,22.0
4135,15.0
4136,7.0
4137,4.0
4138,3.0
4139,3.0
4140,4.0
4141,5.0
4142,5.0
4143,6.0
4144,6.0
4145,6.0
4146,6.0
4147,6.0
4148,6.0
4149,6.0
4150,7.0
4151,8.0
4152,9.0
4153,13.0
4154,19.0
4155,23.0
4156,30.0
4157,38.0
4158,45.0
4159,49.0
4160,52.0
4161,47.0
4162,43.0
4163,44.0
4164,44.0
4165,46.0
4166,48.0
4167,48.0
4168,45.0
4169,44.0
4170,46.0
4171,46.0
4172,43.0
4173,41.0
4174,38.0
4175,35.0
4176,46.0
4177,37.0
4178,30.0
4179,32.0
4180,44.0
4181,45.0
4182,42.0
4183,36.0
4184,37.0
4185,44.0
4186,50.0
4187,54.0
4188,54.0
4189,58.0
4190,69.0
4191,83.0
4192,99.0
4193,118.0
4194,139.0
4195,153.0
4196,152.0
4197,141.0
4198,128.0
4199,118.0
4200,169.0
4201,152.0
4202,132.0
4203,113.0
4204,94.0
4205,70.0
4206,56.0
4207,41.0
4208,25.0
4209,24.0
4210,25.0
4211,28.0
4212,35.0
4213,44.0
4214,57.0
4215,65.0
4216,62.0
4217,61.0
4218,67.0
4219,72.0
4220,83.0
4221,97.0
4222,113.0
4223,127.0
4224,161.0
4225,150.0
4226,100.0
4227,75.0
4228,65.0
4229,49.0
4230,41.0
4231,47.0
4232,41.0
4233,45.0
4234,64.0
4235,115.0
4236,194.0
4237,252.0
4238,285.0
4239,294.0
4240,287.0
4241,270.0
4242,276.0
4243,301.0
4244,329.0
4245,335.0
4246,336.0
4247,336.0
4248,283.0
4249,287.0
4250,318.0
4251,299.0
4252,281.0
4253,286.0
4254,272.0
4255,270.0
4256,284.0
4257,310.0
4258,317.0
4259,319.0
4260,295.0
4261,290.0
4262,282.0
4263,265.0
4264,239.0
4265,206.0
4266,168.0
4267,140.0
4268,128.0
4269,123.0
4270,116.0
4271,108.0
4272,143.0
4273,123.0
4274,97.0
4275,106.0
4276,81.0
4277,53.0
4278,41.0
4279,49.0
4280,42.0
4281,31.0
4282,30.0
4283,32.0
4284,35.0
4285,35.0
4286,31.0
4287,26.0
4288,21.0
4289,16.0
4290,13.0
4291,11.0
4292,13.0
4293,19.0
4294,25.0
4295,31.0
4296,22.0
4297,32.0
4298,33.0
4299,23.0
4300,25.0
4301,38.0
4302,45.0
4303,49.0
4304,49.0
4305,50.0
4306,50.0
4307,51.0
4308,52.0
4309,52.0
4310,50.0
4311,43.0
4312,36.0
4313,29.0
4314,22.0
4315,16.0
4316,12.0
4317,11.0
4318,11.0
4319,13.0
4320,9.0
4321,16.0
4322,27.0
4323,53.0
4324,78.0
4325,93.0
4326,134.0
4327,134.0
4328,176.0
4329,213.0
4330,233.0
4331,245.0
4332,256.0
4333,256.0
4334,254.0
4335,289.0
4336,335.0
4337,347.0
4338,338.0
4339,322.0
4340,306.0
4341,293.0
4342,279.0
4343,267.0
4344,244.0
4345,232.0
4346,224.0
4347,180.0
4348,161.0
4349,137.0
4350,158.0
4351,136.0
4352,247.0
4353,248.0
4354,225.0
4355,219.0
4356,224.0
4357,255.0
4358,301.0
4359,335.0
4360,349.0
4361,359.0
4362,359.0
4363,357.0
4364,353.0
4365,349.0
4366,347.0
4367,345.0
4368,337.0
4369,349.0
4370,350.0
4371,350.0
4372,351.0
4373,349.0
4374,350.0
4375,350.0
4376,344.0
4377,351.0
4378,353.0
4379,354.0
4380,354.0
4381,354.0
4382,355.0
4383,355.0
4384,354.0
4385,354.0
4386,351.0
4387,347.0
4388,341.0
4389,333.0
4390,323.0
4391,312.0
4392,259.0
4393,251.0
4394,210.0
4395,199.0
4396,183.0
4397,225.0
4398,215.0
4399,224.0
4400,196.0
4401,195.0
4402,211.0
4403,222.0
4404,229.0
4405,231.0
4406,237.0
4407,256.0
4408,276.0
4409,295.0
4410,312.0
4411,314.0
4412,312.0
4413,307.0
4414,302.0
4415,300.0
4416,268.0
4417,254.0
4418,234.0
4419,198.0
4420,212.0
4421,226.0
4422,261.0
4423,288.0
4424,302.0
4425,326.0
4426,346.0
4427,354.0
4428,359.0
4429,362.0
4430,364.0
4431,366.0
4432,367.0
4433,367.0
4434,368.0
4435,370.0
4436,369.0
4437,369.0
4438,368.0
4439,366.0
4440,354.0
4441,347.0
4442,336.0
4443,335.0
4444,317.0
4445,313.0
4446,297.0
4447,284.0
4448,262.0
4449,244.0
4450,231.0
4451,221.0
4452,221.0
4453,225.0
4454,230.0
4455,238.0
4456,260.0
4457,275.0
4458,274.0
4459,267.0
4460,257.0
4461,243.0
4462,227.0
4463,211.0
4464,121.0
4465,119.0
4466,97.0
4467,78.0
4468,69.0
4469,69.0
4470,65.0
4471,67.0
4472,87.0
4473,118.0
4474,169.0
4475,228.0
4476,273.0
4477,296.0
4478,303.0
4479,301.0
4480,299.0
4481,317.0
4482,341.0
4483,350.0
4484,355.0
4485,357.0
4486,358.0
4487,358.0
4488,355.0
4489,355.0
4490,360.0
4491,357.0
4492,357.0
4493,352.0
4494,345.0
4495,343.0
4496,330.0
4497,323.0
4498,324.0
4499,316.0
4500,313.0
4501,316.0
4502,321.0
4503,318.0
4504,311.0
4505,296.0
4506,280.0
4507,262.0
4508,250.0
4509,246.0
4510,234.0
4511,217.0
4512,229.0
4513,227.0
4514,221.0
4515,217.0
4516,201.0
4517,209.0
4518,212.0
4519,223.0
4520,217.0
4521,201.0
4522,201.0
4523,203.0
4524,204.0
4525,198.0
4526,192.0
4527,195.0
4528,203.0
4529,214.0
4530,218.0
4531,217.0
4532,215.0
4533,204.0
4534,193.0
4535,190.0
4536,180.0
4537,168.0
4538,140.0
4539,131.0
4540,132.0
4541,141.0
4542,148.0
4543,142.0
4544,131.0
4545,135.0
4546,144.0
4547,159.0
4548,177.0
4549,189.0
4550,185.0
4551,172.0
4552,164.0
4553,170.0
4554,189.0
4555,217.0
4556,243.0
4557,252.0
4558,244.0
4559,221.0
4560,237.0
4561,180.0
4562,135.0
4563,107.0
4564,62.0
4565,47.0
4566,42.0
4567,46.0
4568,50.0
4569,61.0
4570,80.0
4571,106.0
4572,136.0
4573,155.0
4574,163.0
4575,166.0
4576,165.0
4577,166.0
4578,165.0
4579,156.0
4580,141.0
4581,129.0
4582,121.0
4583,104.0
4584,93.0
4585,64.0
4586,38.0
4587,23.0
4588,16.0
4589,5.0
4590,1.0
4591,0.0
4592,1.0
4593,2.0
4594,4.0
4595,5.0
4596,6.0
4597,6.0
4598,7.0
4599,5.0
4600,5.0
4601,6.0
4602,7.0
4603,6.0
4604,5.0
4605,4.0
4606,4.0
4607,5.0
4608,6.0
4609,6.0
4610,5.0
4611,2.0
4612,3.0
4613,3.0
4614,3.0
4615,4.0
4616,2.0
4617,3.0
4618,5.0
4619,5.0
4620,7.0
4621,9.0
4622,10.0
4623,12.0
4624,14.0
4625,15.0
4626,16.0
4627,18.0
4628,21.0
4629,21.0
4630,22.0
4631,22.0
4632,17.0
4633,11.0
4634,8.0
4635,6.0
4636,6.0
4637,5.0
4638,3.0
4639,1.0
4640,2.0
4641,3.0
4642,3.0
4643,4.0
4644,10.0
4645,23.0
4646,39.0
4647,61.0
4648,69.0
4649,57.0
4650,52.0
4651,66.0
4652,86.0
4653,103.0
4654,118.0
4655,117.0
4656,73.0
4657,69.0
4658,47.0
4659,33.0
4660,26.0
4661,26.0
4662,10.0
4663,6.0
4664,4.0
4665,3.0
4666,3.0
4667,5.0
4668,6.0
4669,8.0
4670,9.0
4671,9.0
4672,10.0
4673,10.0
4674,10.0
4675,9.0
4676,9.0
4677,11.0
4678,12.0
4679,13.0
4680,40.0
4681,54.0
4682,59.0
4683,55.0
4684,58.0
4685,59.0
4686,64.0
4687,70.0
4688,62.0
4689,79.0
4690,86.0
4691,99.0
4692,113.0
4693,127.0
4694,148.0
4695,169.0
4696,186.0
4697,197.0
4698,202.0
4699,199.0
4700,188.0
4701,176.0
4702,168.0
4703,159.0
4704,189.0
4705,237.0
4706,217.0
4707,186.0
4708,154.0
4709,140.0
4710,108.0
4711,105.0
4712,118.0
4713,145.0
4714,168.0
4715,181.0
4716,173.0
4717,153.0
4718,131.0
4719,125.0
4720,133.0
4721,142.0
4722,148.0
4723,145.0
4724,132.0
4725,119.0
4726,105.0
4727,89.0
4728,113.0
4729,88.0
4730,61.0
4731,69.0
4732,47.0
4733,33.0
4734,27.0
4735,20.0
4736,14.0
4737,10.0
4738,7.0
4739,11.0
4740,21.0
4741,31.0
4742,36.0
4743,32.0
4744,25.0
4745,22.0
4746,19.0
4747,15.0
4748,11.0
4749,7.0
4750,7.0
4751,4.0
4752,1.0
4753,0.0
4754,1.0
4755,0.0
4756,0.0
4757,1.0
4758,1.0
4759,1.0
4760,3.0
4761,6.0
4762,7.0
4763,7.0
4764,7.0
4765,7.0
4766,11.0
4767,21.0
4768,39.0
4769,63.0
4770,78.0
4771,85.0
4772,88.0
4773,91.0
4774,94.0
4775,94.0
4776,166.0
4777,161.0
4778,169.0
4779,141.0
4780,127.0
4781,86.0
4782,47.0
4783,33.0
4784,28.0
4785,25.0
4786,29.0
4787,30.0
4788,21.0
4789,15.0
4790,13.0
4791,10.0
4792,10.0
4793,13.0
4794,16.0
4795,21.0
4796,23.0
4797,20.0
4798,18.0
4799,16.0
4800,7.0
4801,1.0
4802,1.0
4803,1.0
4804,3.0
4805,4.0
4806,7.0
4807,15.0
4808,25.0
4809,34.0
4810,46.0
4811,59.0
4812,75.0
4813,99.0
4814,131.0
4815,163.0
4816,178.0
4817,176.0
4818,164.0
4819,123.0
4820,80.0
4821,58.0
4822,55.0
4823,69.0
4824,118.0
4825,102.0
4826,122.0
4827,117.0
4828,78.0
4829,78.0
4830,102.0
4831,115.0
4832,125.0
4833,140.0
4834,166.0
4835,195.0
4836,233.0
4837,262.0
4838,282.0
4839,304.0
4840,315.0
4841,311.0
4842,297.0
4843,276.0
4844,250.0
4845,219.0
4846,188.0
4847,157.0
4848,136.0
4849,87.0
4850,60.0
4851,45.0
4852,37.0
4853,38.0
4854,36.0
4855,47.0
4856,47.0
4857,42.0
4858,37.0
4859,34.0
4860,31.0
4861,33.0
4862,34.0
4863,34.0
4864,41.0
4865,57.0
4866,79.0
4867,104.0
4868,121.0
4869,129.0
4870,141.0
4871,149.0
4872,126.0
4873,99.0
4874,138.0
4875,118.0
4876,91.0
4877,79.0
4878,77.0
4879,70.0
4880,69.0
4881,66.0
4882,57.0
4883,52.0
4884,52.0
4885,57.0
4886,61.0
4887,65.0
4888,65.0
4889,60.0
4890,58.0
4891,53.0
4892,42.0
4893,31.0
4894,23.0
4895,17.0
4896,2.0
4897,5.0
4898,4.0
4899,5.0
4900,4.0
4901,5.0
4902,6.0
4903,6.0
4904,6.0
4905,5.0
4906,4.0
4907,4.0
4908,5.0
4909,9.0
4910,14.0
4911,21.0
4912,29.0
4913,42.0
4914,58.0
4915,75.0
4916,97.0
4917,118.0
4918,131.0
4919,136.0
4920,113.0
4921,98.0
4922,94.0
4923,85.0
4924,70.0
4925,98.0
4926,92.0
4927,75.0
4928,65.0
4929,65.0
4930,66.0
4931,70.0
4932,88.0
4933,125.0
4934,167.0
4935,190.0
4936,201.0
4937,208.0
4938,204.0
4939,190.0
4940,162.0
4941,122.0
4942,85.0
4943,62.0
4944,31.0
4945,26.0
4946,34.0
4947,44.0
4948,46.0
4949,41.0
4950,59.0
4951,53.0
4952,54.0
4953,57.0
4954,58.0
4955,62.0
4956,85.0
4957,134.0
4958,183.0
4959,215.0
4960,214.0
4961,201.0
4962,206.0
4963,226.0
4964,243.0
4965,261.0
4966,271.0
4967,268.0
4968,184.0
4969,285.0
4970,283.0
4971,251.0
4972,241.0
4973,223.0
4974,238.0
4975,238.0
4976,241.0
4977,243.0
4978,267.0
4979,295.0
4980,318.0
4981,331.0
4982,337.0
4983,341.0
4984,343.0
4985,344.0
4986,341.0
4987,338.0
4988,333.0
4989,326.0
4990,318.0
4991,309.0
4992,221.0
4993,218.0
4994,213.0
4995,200.0
4996,184.0
4997,179.0
4998,163.0
4999,174.0
5000,155.0
5001,150.0
5002,160.0
5003,159.0
5004,155.0
5005,245.0
5006,235.0
5007,223.0
5008,222.0
5009,224.0
5010,222.0
5011,221.0
5012,211.0
5013,192.0
5014,161.0
5015,130.0
5016,106.0
5017,89.0
5018,77.0
5019,67.0
5020,68.0
5021,71.0
5022,63.0
5023,67.0
5024,59.0
5025,47.0
5026,39.0
5027,39.0
5028,44.0
5029,47.0
5030,46.0
5031,42.0
5032,37.0
5033,33.0
5034,31.0
5035,28.0
5036,22.0
5037,16.0
5038,13.0
5039,12.0
5040,5.0
5041,8.0
5042,9.0
5043,12.0
5044,22.0
5045,21.0
5046,13.0
5047,9.0
5048,4.0
5049,3.0
5050,3.0
5051,4.0
5052,9.0
5053,16.0
5054,22.0
5055,22.0
5056,21.0
5057,19.0
5058,21.0
5059,25.0
5060,28.0
5061,47.0
5062,77.0
5063,107.0
5064,151.0
5065,100.0
5066,106.0
5067,70.0
5068,52.0
5069,44.0
5070,36.0
5071,25.0
5072,26.0
5073,34.0
5074,40.0
5075,40.0
5076,39.0
5077,46.0
5078,62.0
5079,85.0
5080,110.0
5081,127.0
5082,124.0
5083,112.0
5084,94.0
5085,80.0
5086,78.0
5087,61.0
5088,29.0
5089,30.0
5090,14.0
5091,4.0
5092,3.0
5093,2.0
5094,2.0
5095,3.0
5096,2.0
5097,3.0
5098,3.0
5099,4.0
5100,6.0
5101,6.0
5102,7.0
5103,7.0
5104,7.0
5105,7.0
5106,8.0
5107,9.0
5108,11.0
5109,13.0
5110,15.0
5111,17.0
5112,5.0
5113,5.0
5114,6.0
5115,7.0
5116,11.0
5117,11.0
5118,14.0
5119,10.0
5120,9.0
5121,7.0
5122,6.0
5123,6.0
5124,6.0
5125,5.0
5126,6.0
5127,6.0
5128,5.0
5129,5.0
5130,5.0
5131,5.0
5132,4.0
5133,4.0
5134,5.0
5135,5.0
5136,4.0
5137,4.0
5138,5.0
5139,6.0
5140,6.0
5141,6.0
5142,5.0
5143,4.0
5144,1.0
5145,1.0
5146,1.0
5147,1.0
5148,2.0
5149,2.0
5150,3.0
5151,6.0
5152,9.0
5153,11.0
5154,14.0
5155,14.0
5156,11.0
5157,11.0
5158,13.0
5159,18.0
5160,30.0
5161,41.0
5162,56.0
5163,63.0
5164,59.0
5165,60.0
5166,54.0
5167,38.0
5168,30.0
5169,31.0
5170,34.0
5171,37.0
5172,40.0
5173,41.0
5174,39.0
5175,35.0
5176,35.0
5177,39.0
5178,40.0
5179,39.0
5180,34.0
5181,32.0
5182,29.0
5183,26.0
5184,9.0
5185,10.0
5186,6.0
5187,5.0
5188,4.0
5189,4.0
5190,5.0
5191,6.0
5192,6.0
5193,5.0
5194,5.0
5195,6.0
5196,7.0
5197,7.0
5198,6.0
5199,7.0
5200,11.0
5201,14.0
5202,15.0
5203,20.0
5204,23.0
5205,23.0
5206,31.0
5207,48.0
5208,13.0
5209,10.0
5210,28.0
5211,68.0
5212,74.0
5213,79.0
5214,76.0
5215,101.0
5216,110.0
5217,105.0
5218,96.0
5219,75.0
5220,53.0
5221,40.0
5222,28.0
5223,22.0
5224,18.0
5225,13.0
5226,9.0
5227,7.0
5228,7.0
5229,9.0
5230,13.0
5231,16.0
5232,19.0
5233,24.0
5234,16.0
5235,10.0
5236,4.0
5237,5.0
5238,5.0
5239,5.0
5240,12.0
5241,19.0
5242,28.0
5243,38.0
5244,47.0
5245,60.0
5246,62.0
5247,47.0
5248,39.0
5249,38.0
5250,48.0
5251,63.0
5252,71.0
5253,77.0
5254,75.0
5255,75.0
5256,82.0
5257,93.0
5258,97.0
5259,88.0
5260,79.0
5261,74.0
5262,89.0
5263,138.0
5264,136.0
5265,131.0
5266,118.0
5267,127.0
5268,145.0
5269,170.0
5270,190.0
5271,197.0
5272,213.0
5273,231.0
5274,247.0
5275,259.0
5276,267.0
5277,276.0
5278,283.0
5279,285.0
5280,288.0
5281,265.0
5282,264.0
5283,236.0
5284,173.0
5285,116.0
5286,79.0
5287,58.0
5288,51.0
5289,34.0
5290,19.0
5291,12.0
5292,9.0
5293,8.0
5294,9.0
5295,9.0
5296,8.0
5297,13.0
5298,30.0
5299,61.0
5300,98.0
5301,142.0
5302,193.0
5303,229.0
5304,293.0
5305,318.0
5306,339.0
5307,320.0
5308,291.0
5309,243.0
5310,225.0
5311,239.0
5312,205.0
5313,195.0
5314,197.0
5315,203.0
5316,211.0
5317,208.0
5318,208.0
5319,226.0
5320,217.0
5321,187.0
5322,158.0
5323,131.0
5324,142.0
5325,170.0
5326,223.0
5327,291.0
5328,326.0
5329,349.0
5330,339.0
5331,347.0
5332,337.0
5333,341.0
5334,337.0
5335,346.0
5336,351.0
5337,339.0
5338,323.0
5339,306.0
5340,281.0
5341,242.0
5342,186.0
5343,129.0
5344,93.0
5345,71.0
5346,60.0
5347,42.0
5348,25.0
5349,17.0
5350,12.0
5351,8.0
5352,28.0
5353,39.0
5354,44.0
5355,53.0
5356,74.0
5357,91.0
5358,93.0
5359,123.0
5360,147.0
5361,150.0
5362,148.0
5363,155.0
5364,147.0
5365,125.0
5366,103.0
5367,86.0
5368,66.0
5369,57.0
5370,51.0
5371,37.0
5372,36.0
5373,38.0
5374,39.0
5375,40.0
5376,16.0
5377,28.0
5378,42.0
5379,48.0
5380,63.0
5381,62.0
5382,98.0
5383,117.0
5384,131.0
5385,125.0
5386,122.0
5387,132.0
5388,127.0
5389,111.0
5390,120.0
5391,128.0
5392,136.0
5393,150.0
5394,133.0
5395,118.0
5396,113.0
5397,109.0
5398,102.0
5399,91.0
5400,138.0
5401,147.0
5402,129.0
5403,146.0
5404,133.0
5405,109.0
5406,102.0
5407,120.0
5408,119.0
5409,120.0
5410,120.0
5411,121.0
5412,123.0
5413,120.0
5414,115.0
5415,101.0
5416,83.0
5417,74.0
5418,59.0
5419,53.0
5420,44.0
5421,37.0
5422,30.0
5423,24.0
5424,15.0
5425,36.0
5426,67.0
5427,119.0
5428,146.0
5429,158.0
5430,189.0
5431,237.0
5432,241.0
5433,266.0
5434,310.0
5435,305.0
5436,306.0
5437,304.0
5438,295.0
5439,269.0
5440,241.0
5441,218.0
5442,211.0
5443,219.0
5444,210.0
5445,206.0
5446,208.0
5447,209.0
5448,185.0
5449,184.0
5450,152.0
5451,130.0
5452,107.0
5453,103.0
5454,112.0
5455,137.0
5456,150.0
5457,155.0
5458,162.0
5459,155.0
5460,162.0
5461,161.0
5462,134.0
5463,115.0
5464,98.0
5465,76.0
5466,50.0
5467,29.0
5468,20.0
5469,20.0
5470,32.0
5471,58.0
5472,114.0
5473,163.0
5474,197.0
5475,226.0
5476,223.0
5477,232.0
5478,211.0
5479,169.0
5480,179.0
5481,203.0
5482,222.0
5483,234.0
5484,246.0
5485,243.0
5486,214.0
5487,176.0
5488,144.0
5489,128.0
5490,108.0
5491,86.0
5492,78.0
5493,89.0
5494,91.0
5495,73.0
5496,124.0
5497,130.0
5498,109.0
5499,114.0
5500,98.0
5501,66.0
5502,62.0
5503,47.0
5504,42.0
5505,38.0
5506,31.0
5507,27.0
5508,26.0
5509,26.0
5510,30.0
5511,54.0
5512,70.0
5513,63.0
5514,64.0
5515,68.0
5516,74.0
5517,90.0
5518,105.0
5519,110.0
5520,118.0
5521,94.0
5522,82.0
5523,71.0
5524,81.0
5525,85.0
5526,118.0
5527,148.0
5528,177.0
5529,174.0
5530,162.0
5531,170.0
5532,172.0
5533,158.0
5534,147.0
5535,131.0
5536,119.0
5537,110.0
5538,99.0
5539,84.0
5540,72.0
5541,78.0
5542,87.0
5543,88.0
5544,85.0
5545,71.0
5546,60.0
5547,49.0
5548,55.0
5549,91.0
5550,120.0
5551,124.0
5552,124.0
5553,133.0
5554,141.0
5555,143.0
5556,129.0
5557,91.0
5558,62.0
5559,47.0
5560,37.0
5561,29.0
5562,21.0
5563,18.0
5564,15.0
5565,17.0
5566,21.0
5567,26.0
5568,32.0
5569,35.0
5570,40.0
5571,52.0
5572,59.0
5573,55.0
5574,55.0
5575,66.0
5576,86.0
5577,101.0
5578,97.0
5579,84.0
5580,75.0
5581,68.0
5582,55.0
5583,40.0
5584,28.0
5585,21.0
5586,14.0
5587,10.0
5588,9.0
5589,8.0
5590,9.0
5591,11.0
5592,9.0
5593,16.0
5594,27.0
5595,33.0
5596,34.0
5597,36.0
5598,38.0
5599,52.0
5600,58.0
5601,56.0
5602,51.0
5603,47.0
5604,44.0
5605,42.0
5606,44.0
5607,46.0
5608,44.0
5609,43.0
5610,43.0
5611,45.0
5612,48.0
5613,50.0
5614,50.0
5615,50.0
5616,11.0
5617,3.0
5618,2.0
5619,4.0
5620,7.0
5621,10.0
5622,13.0
5623,21.0
5624,28.0
5625,31.0
5626,30.0
5627,27.0
5628,23.0
5629,19.0
5630,15.0
5631,12.0
5632,13.0
5633,14.0
5634,14.0
5635,13.0
5636,10.0
5637,8.0
5638,8.0
5639,8.0
5640,2.0
5641,3.0
5642,4.0
5643,5.0
5644,7.0
5645,9.0
5646,13.0
5647,19.0
5648,24.0
5649,25.0
5650,24.0
5651,26.0
5652,31.0
5653,38.0
5654,50.0
5655,67.0
5656,89.0
5657,121.0
5658,146.0
5659,156.0
5660,158.0
5661,151.0
5662,136.0
5663,120.0
5664,102.0
5665,86.0
5666,71.0
5667,60.0
5668,47.0
5669,38.0
5670,38.0
5671,33.0
5672,33.0
5673,34.0
5674,40.0
5675,47.0
5676,62.0
5677,83.0
5678,100.0
5679,122.0
5680,155.0
5681,189.0
5682,210.0
5683,217.0
5684,212.0
5685,195.0
5686,173.0
5687,147.0
5688,127.0
5689,96.0
5690,64.0
5691,43.0
5692,37.0
5693,35.0
5694,35.0
5695,32.0
5696,30.0
5697,29.0
5698,28.0
5699,31.0
5700,40.0
5701,54.0
5702,73.0
5703,97.0
5704,121.0
5705,134.0
5706,139.0
5707,135.0
5708,123.0
5709,108.0
5710,93.0
5711,80.0
5712,77.0
5713,51.0
5714,38.0
5715,38.0
5716,43.0
5717,69.0
5718,51.0
5719,56.0
5720,36.0
5721,32.0
5722,30.0
5723,31.0
5724,36.0
5725,45.0
5726,62.0
5727,86.0
5728,98.0
5729,84.0
5730,72.0
5731,85.0
5732,86.0
5733,80.0
5734,92.0
5735,95.0
5736,108.0
5737,101.0
5738,65.0
5739,35.0
5740,25.0
5741,23.0
5742,23.0
5743,13.0
5744,16.0
5745,21.0
5746,20.0
5747,18.0
5748,17.0
5749,16.0
5750,15.0
5751,14.0
5752,11.0
5753,9.0
5754,9.0
5755,13.0
5756,18.0
5757,26.0
5758,38.0
5759,67.0
5760,131.0
5761,70.0
5762,44.0
5763,84.0
5764,34.0
5765,30.0
5766,25.0
5767,33.0
5768,33.0
5769,34.0
5770,29.0
5771,25.0
5772,28.0
5773,34.0
5774,41.0
5775,46.0
5776,56.0
5777,62.0
5778,63.0
5779,67.0
5780,68.0
5781,64.0
5782,60.0
5783,57.0
5784,23.0
5785,10.0
5786,10.0
5787,10.0
5788,4.0
5789,2.0
5790,1.0
5791,1.0
5792,3.0
5793,3.0
5794,4.0
5795,5.0
5796,6.0
5797,5.0
5798,6.0
5799,7.0
5800,8.0
5801,9.0
5802,12.0
5803,11.0
5804,8.0
5805,9.0
5806,11.0
5807,11.0
5808,3.0
5809,5.0
5810,6.0
5811,4.0
5812,3.0
5813,3.0
5814,5.0
5815,7.0
5816,11.0
5817,12.0
5818,11.0
5819,10.0
5820,10.0
5821,11.0
5822,17.0
5823,25.0
5824,30.0
5825,32.0
5826,33.0
5827,43.0
5828,61.0
5829,97.0
5830,137.0
5831,144.0
5832,261.0
5833,289.0
5834,312.0
5835,295.0
5836,181.0
5837,102.0
5838,66.0
5839,47.0
5840,57.0
5841,72.0
5842,94.0
5843,113.0
5844,125.0
5845,129.0
5846,139.0
5847,158.0
5848,150.0
5849,130.0
5850,114.0
5851,98.0
5852,86.0
5853,81.0
5854,80.0
5855,82.0
5856,103.0
5857,123.0
5858,160.0
5859,169.0
5860,181.0
5861,198.0
5862,222.0
5863,231.0
5864,201.0
5865,205.0
5866,210.0
5867,194.0
5868,167.0
5869,142.0
5870,135.0
5871,134.0
5872,123.0
5873,114.0
5874,108.0
5875,96.0
5876,88.0
5877,81.0
5878,81.0
5879,97.0
5880,121.0
5881,137.0
5882,178.0
5883,238.0
5884,281.0
5885,308.0
5886,319.0
5887,328.0
5888,327.0
5889,338.0
5890,343.0
5891,342.0
5892,333.0
5893,320.0
5894,313.0
5895,307.0
5896,298.0
5897,279.0
5898,259.0
5899,240.0
5900,215.0
5901,189.0
5902,166.0
5903,145.0
5904,147.0
5905,136.0
5906,116.0
5907,100.0
5908,84.0
5909,86.0
5910,88.0
5911,114.0
5912,136.0
5913,141.0
5914,141.0
5915,145.0
5916,168.0
5917,206.0
5918,226.0
5919,218.0
5920,196.0
5921,186.0
5922,186.0
5923,199.0
5924,224.0
5925,248.0
5926,256.0
5927,251.0
5928,309.0
5929,286.0
5930,259.0
5931,225.0
5932,199.0
5933,159.0
5934,173.0
5935,210.0
5936,241.0
5937,266.0
5938,313.0
5939,328.0
5940,333.0
5941,336.0
5942,341.0
5943,343.0
5944,344.0
5945,354.0
5946,356.0
5947,355.0
5948,354.0
5949,352.0
5950,343.0
5951,334.0
5952,337.0
5953,304.0
5954,253.0
5955,228.0
5956,214.0
5957,209.0
5958,232.0
5959,272.0
5960,280.0
5961,281.0
5962,277.0
5963,265.0
5964,243.0
5965,221.0
5966,216.0
5967,226.0
5968,233.0
5969,248.0
5970,248.0
5971,237.0
5972,239.0
5973,246.0
5974,257.0
5975,281.0
5976,304.0
5977,343.0
5978,308.0
5979,331.0
5980,303.0
5981,225.0
5982,144.0
5983,87.0
5984,54.0
5985,43.0
5986,32.0
5987,26.0
5988,23.0
5989,22.0
5990,23.0
5991,24.0
5992,21.0
5993,13.0
5994,6.0
5995,6.0
5996,10.0
5997,14.0
5998,11.0
5999,7.0
6000,4.0
6001,0.0
6002,0.0
6003,2.0
6004,1.0
6005,1.0
6006,3.0
6007,1.0
6008,0.0
6009,0.0
6010,0.0
6011,0.0
6012,1.0
6013,1.0
6014,1.0
6015,2.0
6016,4.0
6017,5.0
6018,6.0
6019,7.0
6020,8.0
6021,7.0
6022,6.0
6023,6.0
6024,4.0
6025,3.0
6026,1.0
6027,1.0
6028,2.0
6029,6.0
6030,4.0
6031,5.0
6032,10.0
6033,17.0
6034,25.0
6035,33.0
6036,44.0
6037,58.0
6038,79.0
6039,106.0
6040,124.0
6041,140.0
6042,154.0
6043,160.0
6044,154.0
6045,143.0
6046,145.0
6047,158.0
6048,151.0
6049,157.0
6050,168.0
6051,188.0
6052,283.0
6053,336.0
6054,348.0
6055,354.0
6056,352.0
6057,352.0
6058,350.0
6059,348.0
6060,346.0
6061,345.0
6062,344.0
6063,343.0
6064,342.0
6065,349.0
6066,347.0
6067,343.0
6068,340.0
6069,336.0
6070,330.0
6071,321.0
6072,313.0
6073,287.0
6074,254.0
6075,196.0
6076,150.0
6077,132.0
6078,127.0
6079,127.0
6080,145.0
6081,180.0
6082,203.0
6083,221.0
6084,245.0
6085,262.0
6086,267.0
6087,263.0
6088,270.0
6089,291.0
6090,307.0
6091,328.0
6092,347.0
6093,352.0
6094,350.0
6095,339.0
6096,327.0
6097,283.0
6098,227.0
6099,195.0
6100,166.0
6101,136.0
6102,147.0
6103,140.0
6104,125.0
6105,119.0
6106,117.0
6107,120.0
6108,120.0
6109,111.0
6110,108.0
6111,128.0
6112,135.0
6113,147.0
6114,167.0
6115,159.0
6116,146.0
6117,140.0
6118,142.0
6119,156.0
6120,213.0
6121,168.0
6122,165.0
6123,257.0
6124,304.0
6125,316.0
6126,302.0
6127,253.0
6128,235.0
6129,217.0
6130,234.0
6131,242.0
6132,246.0
6133,257.0
6134,270.0
6135,273.0
6136,271.0
6137,270.0
6138,257.0
6139,245.0
6140,235.0
6141,223.0
6142,218.0
6143,212.0
6144,176.0
6145,162.0
6146,137.0
6147,138.0
6148,141.0
6149,98.0
6150,86.0
6151,79.0
6152,68.0
6153,61.0
6154,55.0
6155,53.0
6156,57.0
6157,57.0
6158,50.0
6159,40.0
6160,31.0
6161,26.0
6162,29.0
6163,48.0
6164,72.0
6165,92.0
6166,114.0
6167,151.0
6168,200.0
6169,262.0
6170,300.0
6171,326.0
6172,248.0
6173,242.0
6174,245.0
6175,252.0
6176,351.0
6177,349.0
6178,349.0
6179,349.0
6180,348.0
6181,346.0
6182,342.0
6183,333.0
6184,334.0
6185,347.0
6186,349.0
6187,347.0
6188,344.0
6189,342.0
6190,338.0
6191,335.0
6192,344.0
6193,347.0
6194,340.0
6195,343.0
6196,345.0
6197,340.0
6198,328.0
6199,323.0
6200,306.0
6201,316.0
6202,328.0
6203,325.0
6204,322.0
6205,316.0
6206,307.0
6207,300.0
6208,291.0
6209,287.0
6210,282.0
6211,271.0
6212,267.0
6213,267.0
6214,263.0
6215,262.0
6216,228.0
6217,239.0
6218,261.0
6219,279.0
6220,296.0
6221,321.0
6222,319.0
6223,337.0
6224,338.0
6225,339.0
6226,349.0
6227,355.0
6228,360.0
6229,361.0
6230,364.0
6231,365.0
6232,365.0
6233,365.0
6234,365.0
6235,363.0
6236,359.0
6237,353.0
6238,345.0
6239,334.0
6240,305.0
6241,297.0
6242,295.0
6243,283.0
6244,292.0
6245,292.0
6246,312.0
6247,322.0
6248,330.0
6249,332.0
6250,331.0
6251,329.0
6252,329.0
6253,328.0
6254,328.0
6255,328.0
6256,315.0
6257,284.0
6258,250.0
6259,216.0
6260,207.0
6261,216.0
6262,205.0
6263,189.0
6264,168.0
6265,129.0
6266,91.0
6267,77.0
6268,71.0
6269,74.0
6270,73.0
6271,69.0
6272,60.0
6273,51.0
6274,41.0
6275,37.0
6276,39.0
6277,42.0
6278,47.0
6279,53.0
6280,58.0
6281,62.0
6282,57.0
6283,50.0
6284,44.0
6285,45.0
6286,51.0
6287,62.0
6288,96.0
6289,80.0
6290,67.0
6291,64.0
6292,52.0
6293,68.0
6294,73.0
6295,79.0
6296,79.0
6297,80.0
6298,94.0
6299,116.0
6300,134.0
6301,141.0
6302,137.0
6303,144.0
6304,154.0
6305,151.0
6306,141.0
6307,129.0
6308,130.0
6309,137.0
6310,137.0
6311,145.0
6312,204.0
6313,175.0
6314,158.0
6315,161.0
6316,137.0
6317,135.0
6318,148.0
6319,151.0
6320,143.0
6321,131.0
6322,115.0
6323,95.0
6324,71.0
6325,49.0
6326,35.0
6327,26.0
6328,17.0
6329,9.0
6330,7.0
6331,6.0
6332,7.0
6333,8.0
6334,8.0
6335,9.0
6336,8.0
6337,16.0
6338,28.0
6339,25.0
6340,20.0
6341,8.0
6342,5.0
6343,7.0
6344,8.0
6345,15.0
6346,21.0
6347,27.0
6348,31.0
6349,37.0
6350,51.0
6351,72.0
6352,101.0
6353,138.0
6354,170.0
6355,195.0
6356,211.0
6357,214.0
6358,211.0
6359,209.0
6360,266.0
6361,297.0
6362,305.0
6363,293.0
6364,273.0
6365,253.0
6366,226.0
6367,213.0
6368,226.0
6369,221.0
6370,209.0
6371,205.0
6372,211.0
6373,225.0
6374,244.0
6375,265.0
6376,274.0
6377,266.0
6378,241.0
6379,213.0
6380,195.0
6381,182.0
6382,169.0
6383,152.0
6384,107.0
6385,66.0
6386,26.0
6387,11.0
6388,8.0
6389,6.0
6390,6.0
6391,6.0
6392,6.0
6393,6.0
6394,7.0
6395,7.0
6396,6.0
6397,6.0
6398,5.0
6399,5.0
6400,6.0
6401,8.0
6402,13.0
6403,18.0
6404,24.0
6405,27.0
6406,29.0
6407,32.0
6408,26.0
6409,31.0
6410,29.0
6411,26.0
6412,31.0
6413,32.0
6414,35.0
6415,34.0
6416,33.0
6417,33.0
6418,30.0
6419,25.0
6420,23.0
6421,24.0
6422,28.0
6423,33.0
6424,41.0
6425,44.0
6426,42.0
6427,43.0
6428,42.0
6429,41.0
6430,41.0
6431,39.0
6432,32.0
6433,29.0
6434,28.0
6435,22.0
6436,17.0
6437,14.0
6438,9.0
6439,6.0
6440,5.0
6441,7.0
6442,9.0
6443,16.0
6444,20.0
6445,20.0
6446,18.0
6447,21.0
6448,28.0
6449,38.0
6450,59.0
6451,101.0
6452,159.0
6453,207.0
6454,230.0
6455,232.0
6456,227.0
6457,214.0
6458,198.0
6459,175.0
6460,184.0
6461,196.0
6462,210.0
6463,221.0
6464,228.0
6465,205.0
6466,150.0
6467,119.0
6468,100.0
6469,83.0
6470,69.0
6471,60.0
6472,52.0
6473,44.0
6474,41.0
6475,41.0
6476,43.0
6477,54.0
6478,77.0
6479,101.0
6480,94.0
6481,116.0
6482,162.0
6483,199.0
6484,223.0
6485,255.0
6486,261.0
6487,282.0
6488,274.0
6489,270.0
6490,255.0
6491,214.0
6492,166.0
6493,132.0
6494,110.0
6495,110.0
6496,128.0
6497,172.0
6498,222.0
6499,275.0
6500,323.0
6501,338.0
6502,342.0
6503,344.0
6504,348.0
6505,338.0
6506,321.0
6507,296.0
6508,285.0
6509,301.0
6510,310.0
6511,309.0
6512,316.0
6513,328.0
6514,325.0
6515,306.0
6516,291.0
6517,290.0
6518,276.0
6519,262.0
6520,261.0
6521,243.0
6522,213.0
6523,187.0
6524,179.0
6525,186.0
6526,188.0
6527,193.0
6528,199.0
6529,179.0
6530,185.0
6531,134.0
6532,128.0
6533,106.0
6534,77.0
6535,127.0
6536,266.0
6537,333.0
6538,347.0
6539,353.0
6540,356.0
6541,358.0
6542,359.0
6543,360.0
6544,361.0
6545,361.0
6546,361.0
6547,359.0
6548,355.0
6549,348.0
6550,335.0
6551,309.0
6552,227.0
6553,183.0
6554,127.0
6555,80.0
6556,47.0
6557,34.0
6558,18.0
6559,8.0
6560,5.0
6561,7.0
6562,13.0
6563,26.0
6564,43.0
6565,56.0
6566,62.0
6567,58.0
6568,47.0
6569,38.0
6570,32.0
6571,34.0
6572,45.0
6573,59.0
6574,74.0
6575,85.0
6576,87.0
6577,81.0
6578,77.0
6579,93.0
6580,107.0
6581,144.0
6582,131.0
6583,152.0
6584,159.0
6585,160.0
6586,171.0
6587,177.0
6588,189.0
6589,202.0
6590,224.0
6591,255.0
6592,269.0
6593,276.0
6594,283.0
6595,275.0
6596,233.0
6597,181.0
6598,141.0
6599,121.0
6600,125.0
6601,146.0
6602,169.0
6603,131.0
6604,128.0
6605,102.0
6606,87.0
6607,114.0
6608,99.0
6609,86.0
6610,58.0
6611,40.0
6612,32.0
6613,25.0
6614,20.0
6615,19.0
6616,19.0
6617,18.0
6618,15.0
6619,13.0
6620,9.0
6621,5.0
6622,3.0
6623,1.0
6624,4.0
6625,4.0
6626,4.0
6627,4.0
6628,5.0
6629,5.0
6630,8.0
6631,15.0
6632,35.0
6633,52.0
6634,66.0
6635,69.0
6636,64.0
6637,58.0
6638,53.0
6639,53.0
6640,60.0
6641,75.0
6642,97.0
6643,128.0
6644,154.0
6645,165.0
6646,174.0
6647,203.0
6648,177.0
6649,225.0
6650,245.0
6651,274.0
6652,277.0
6653,254.0
6654,220.0
6655,250.0
6656,229.0
6657,235.0
6658,220.0
6659,216.0
6660,215.0
6661,206.0
6662,193.0
6663,168.0
6664,145.0
6665,123.0
6666,103.0
6667,89.0
6668,81.0
6669,71.0
6670,59.0
6671,51.0
6672,30.0
6673,25.0
6674,29.0
6675,27.0
6676,24.0
6677,23.0
6678,19.0
6679,21.0
6680,25.0
6681,23.0
6682,20.0
6683,20.0
6684,23.0
6685,24.0
6686,23.0
6687,25.0
6688,25.0
6689,31.0
6690,44.0
6691,56.0
6692,65.0
6693,65.0
6694,59.0
6695,55.0
6696,50.0
6697,39.0
6698,48.0
6699,57.0
6700,55.0
6701,47.0
6702,64.0
6703,63.0
6704,49.0
6705,37.0
6706,22.0
6707,12.0
6708,7.0
6709,6.0
6710,5.0
6711,5.0
6712,5.0
6713,5.0
6714,5.0
6715,4.0
6716,5.0
6717,9.0
6718,21.0
6719,51.0
6720,107.0
6721,141.0
6722,153.0
6723,162.0
6724,229.0
6725,248.0
6726,272.0
6727,291.0
6728,327.0
6729,343.0
6730,353.0
6731,350.0
6732,326.0
6733,292.0
6734,262.0
6735,235.0
6736,218.0
6737,209.0
6738,208.0
6739,217.0
6740,221.0
6741,236.0
6742,251.0
6743,265.0
6744,217.0
6745,233.0
6746,246.0
6747,251.0
6748,272.0
6749,292.0
6750,306.0
6751,302.0
6752,258.0
6753,251.0
6754,255.0
6755,247.0
6756,232.0
6757,219.0
6758,208.0
6759,196.0
6760,183.0
6761,169.0
6762,160.0
6763,168.0
6764,181.0
6765,186.0
6766,188.0
6767,198.0
6768,166.0
6769,203.0
6770,211.0
6771,246.0
6772,277.0
6773,285.0
6774,281.0
6775,272.0
6776,283.0
6777,297.0
6778,314.0
6779,312.0
6780,308.0
6781,303.0
6782,299.0
6783,299.0
6784,289.0
6785,295.0
6786,313.0
6787,326.0
6788,333.0
6789,336.0
6790,340.0
6791,342.0
6792,344.0
6793,339.0
6794,339.0
6795,331.0
6796,353.0
6797,354.0
6798,351.0
6799,355.0
6800,350.0
6801,352.0
6802,353.0
6803,352.0
6804,351.0
6805,352.0
6806,351.0
6807,352.0
6808,354.0
6809,364.0
6810,367.0
6811,368.0
6812,369.0
6813,369.0
6814,369.0
6815,369.0
6816,358.0
6817,356.0
6818,351.0
6819,347.0
6820,318.0
6821,271.0
6822,220.0
6823,202.0
6824,187.0
6825,175.0
6826,184.0
6827,206.0
6828,230.0
6829,247.0
6830,259.0
6831,267.0
6832,268.0
6833,261.0
6834,247.0
6835,225.0
6836,196.0
6837,169.0
6838,153.0
6839,138.0
6840,108.0
6841,84.0
6842,59.0
6843,47.0
6844,33.0
6845,24.0
6846,14.0
6847,10.0
6848,8.0
6849,11.0
6850,22.0
6851,37.0
6852,48.0
6853,52.0
6854,53.0
6855,62.0
6856,100.0
6857,168.0
6858,244.0
6859,305.0
6860,342.0
6861,358.0
6862,361.0
6863,362.0
6864,353.0
6865,354.0
6866,353.0
6867,356.0
6868,356.0
6869,354.0
6870,350.0
6871,340.0
6872,314.0
6873,271.0
6874,214.0
6875,146.0
6876,79.0
6877,38.0
6878,16.0
6879,7.0
6880,5.0
6881,5.0
6882,12.0
6883,30.0
6884,59.0
6885,96.0
6886,140.0
6887,187.0
6888,248.0
6889,250.0
6890,268.0
6891,275.0
6892,279.0
6893,278.0
6894,274.0
6895,257.0
6896,206.0
6897,149.0
6898,98.0
6899,66.0
6900,48.0
6901,38.0
6902,30.0
6903,22.0
6904,18.0
6905,17.0
6906,14.0
6907,12.0
6908,12.0
6909,14.0
6910,14.0
6911,13.0
6912,21.0
6913,42.0
6914,54.0
6915,51.0
6916,45.0
6917,22.0
6918,16.0
6919,12.0
6920,11.0
6921,19.0
6922,41.0
6923,66.0
6924,86.0
6925,121.0
6926,158.0
6927,192.0
6928,207.0
6929,203.0
6930,195.0
6931,167.0
6932,133.0
6933,96.0
6934,66.0
6935,62.0
6936,33.0
6937,51.0
6938,74.0
6939,92.0
6940,108.0
6941,140.0
6942,168.0
6943,211.0
6944,239.0
6945,247.0
6946,247.0
6947,241.0
6948,233.0
6949,214.0
6950,183.0
6951,152.0
6952,116.0
6953,93.0
6954,77.0
6955,56.0
6956,40.0
6957,27.0
6958,21.0
6959,20.0
6960,17.0
6961,34.0
6962,61.0
6963,86.0
6964,117.0
6965,143.0
6966,148.0
6967,150.0
6968,176.0
6969,162.0
6970,128.0
6971,125.0
6972,141.0
6973,168.0
6974,198.0
6975,228.0
6976,259.0
6977,292.0
6978,323.0
6979,340.0
6980,342.0
6981,336.0
6982,329.0
6983,325.0
6984,349.0
6985,347.0
6986,349.0
6987,342.0
6988,348.0
6989,340.0
6990,319.0
6991,283.0
6992,253.0
6993,242.0
6994,237.0
6995,216.0
6996,191.0
6997,176.0
6998,171.0
6999,175.0
7000,184.0
7001,192.0
7002,201.0
7003,214.0
7004,235.0
7005,239.0
7006,230.0
7007,200.0
7008,143.0
7009,123.0
7010,99.0
7011,76.0
7012,53.0
7013,40.0
7014,36.0
7015,35.0
7016,32.0
7017,28.0
7018,21.0
7019,14.0
7020,11.0
7021,10.0
7022,10.0
7023,9.0
7024,8.0
7025,6.0
7026,6.0
7027,9.0
7028,12.0
7029,17.0
7030,27.0
7031,40.0
7032,25.0
7033,41.0
7034,50.0
7035,54.0
7036,86.0
7037,130.0
7038,131.0
7039,136.0
7040,139.0
7041,143.0
7042,154.0
7043,152.0
7044,133.0
7045,110.0
7046,85.0
7047,57.0
7048,37.0
7049,29.0
7050,33.0
7051,33.0
7052,34.0
7053,41.0
7054,51.0
7055,67.0
7056,52.0
7057,71.0
7058,79.0
7059,77.0
7060,109.0
7061,118.0
7062,146.0
7063,156.0
7064,163.0
7065,175.0
7066,190.0
7067,186.0
7068,177.0
7069,177.0
7070,173.0
7071,171.0
7072,162.0
7073,151.0
7074,142.0
7075,135.0
7076,125.0
7077,104.0
7078,86.0
7079,73.0
7080,87.0
7081,63.0
7082,46.0
7083,36.0
7084,30.0
7085,15.0
7086,12.0
7087,13.0
7088,13.0
7089,17.0
7090,23.0
7091,25.0
7092,24.0
7093,20.0
7094,13.0
7095,8.0
7096,8.0
7097,15.0
7098,28.0
7099,47.0
7100,65.0
7101,81.0
7102,91.0
7103,94.0
7104,133.0
7105,113.0
7106,98.0
7107,92.0
7108,89.0
7109,106.0
7110,114.0
7111,109.0
7112,120.0
7113,124.0
7114,116.0
7115,109.0
7116,98.0
7117,80.0
7118,68.0
7119,72.0
7120,84.0
7121,98.0
7122,103.0
7123,104.0
7124,120.0
7125,139.0
7126,169.0
7127,206.0
7128,263.0
7129,273.0
7130,282.0
7131,218.0
7132,293.0
7133,278.0
7134,251.0
7135,236.0
7136,252.0
7137,275.0
7138,289.0
7139,295.0
7140,293.0
7141,282.0
7142,281.0
7143,281.0
7144,263.0
7145,236.0
7146,221.0
7147,232.0
7148,254.0
7149,270.0
7150,292.0
7151,321.0
7152,347.0
7153,360.0
7154,321.0
7155,254.0
7156,250.0
7157,251.0
7158,250.0
7159,255.0
7160,355.0
7161,355.0
7162,357.0
7163,357.0
7164,358.0
7165,357.0
7166,353.0
7167,349.0
7168,344.0
7169,341.0
7170,342.0
7171,344.0
7172,348.0
7173,351.0
7174,352.0
7175,351.0
7176,354.0
7177,356.0
7178,357.0
7179,354.0
7180,247.0
7181,246.0
7182,251.0
7183,352.0
7184,253.0
7185,347.0
7186,343.0
7187,348.0
7188,350.0
7189,352.0
7190,353.0
7191,353.0
7192,353.0
7193,350.0
7194,349.0
7195,349.0
7196,351.0
7197,354.0
7198,357.0
7199,358.0
7200,359.0
7201,346.0
7202,349.0
7203,352.0
7204,349.0
7205,342.0
7206,319.0
7207,288.0
7208,248.0
7209,200.0
7210,148.0
7211,112.0
7212,98.0
7213,92.0
7214,95.0
7215,85.0
7216,65.0
7217,69.0
7218,82.0
7219,94.0
7220,100.0
7221,102.0
7222,99.0
7223,87.0
7224,76.0
7225,60.0
7226,57.0
7227,72.0
7228,58.0
7229,59.0
7230,72.0
7231,90.0
7232,84.0
7233,68.0
7234,56.0
7235,45.0
7236,35.0
7237,27.0
7238,23.0
7239,20.0
7240,20.0
7241,23.0
7242,27.0
7243,30.0
7244,32.0
7245,31.0
7246,27.0
7247,20.0
7248,14.0
7249,23.0
7250,24.0
7251,20.0
7252,12.0
7253,6.0
7254,3.0
7255,2.0
7256,1.0
7257,2.0
7258,2.0
7259,2.0
7260,2.0
7261,2.0
7262,2.0
7263,3.0
7264,3.0
7265,3.0
7266,3.0
7267,4.0
7268,4.0
7269,6.0
7270,8.0
7271,11.0
7272,16.0
7273,16.0
7274,25.0
7275,28.0
7276,38.0
7277,42.0
7278,38.0
7279,33.0
7280,30.0
7281,32.0
7282,30.0
7283,28.0
7284,24.0
7285,21.0
7286,18.0
7287,14.0
7288,10.0
7289,8.0
7290,7.0
7291,6.0
7292,6.0
7293,7.0
7294,10.0
7295,16.0
7296,23.0
7297,36.0
7298,47.0
7299,55.0
7300,63.0
7301,76.0
7302,106.0
7303,136.0
7304,145.0
7305,164.0
7306,203.0
7307,237.0
7308,248.0
7309,255.0
7310,265.0
7311,274.0
7312,281.0
7313,284.0
7314,279.0
7315,264.0
7316,242.0
7317,219.0
7318,196.0
7319,170.0
7320,146.0
7321,105.0
7322,101.0
7323,76.0
7324,81.0
7325,87.0
7326,91.0
7327,90.0
7328,91.0
7329,95.0
7330,105.0
7331,117.0
7332,135.0
7333,178.0
7334,220.0
7335,233.0
7336,219.0
7337,210.0
7338,210.0
7339,233.0
7340,254.0
7341,238.0
7342,215.0
7343,200.0
7344,200.0
7345,165.0
7346,164.0
7347,158.0
7348,113.0
7349,122.0
7350,84.0
7351,61.0
7352,47.0
7353,49.0
7354,44.0
7355,34.0
7356,26.0
7357,22.0
7358,20.0
7359,22.0
7360,25.0
7361,29.0
7362,36.0
7363,45.0
7364,56.0
7365,67.0
7366,71.0
7367,73.0
7368,80.0
7369,43.0
7370,51.0
7371,63.0
7372,71.0
7373,80.0
7374,111.0
7375,149.0
7376,186.0
7377,166.0
7378,162.0
7379,184.0
7380,215.0
7381,218.0
7382,193.0
7383,170.0
7384,157.0
7385,137.0
7386,119.0
7387,115.0
7388,111.0
7389,105.0
7390,120.0
7391,148.0
7392,173.0
7393,232.0
7394,238.0
7395,237.0
7396,209.0
7397,173.0
7398,158.0
7399,136.0
7400,142.0
7401,142.0
7402,135.0
7403,130.0
7404,121.0
7405,103.0
7406,89.0
7407,82.0
7408,82.0
7409,83.0
7410,81.0
7411,78.0
7412,74.0
7413,72.0
7414,69.0
7415,64.0
7416,59.0
7417,75.0
7418,76.0
7419,78.0
7420,57.0
7421,54.0
7422,48.0
7423,34.0
7424,26.0
7425,21.0
7426,14.0
7427,8.0
7428,6.0
7429,6.0
7430,5.0
7431,5.0
7432,5.0
7433,6.0
7434,6.0
7435,5.0
7436,5.0
7437,5.0
7438,6.0
7439,5.0
7440,5.0
7441,2.0
7442,4.0
7443,5.0
7444,1.0
7445,1.0
7446,2.0
7447,3.0
7448,4.0
7449,3.0
7450,4.0
7451,9.0
7452,11.0
7453,7.0
7454,7.0
7455,10.0
7456,15.0
7457,24.0
7458,35.0
7459,48.0
7460,65.0
7461,82.0
7462,96.0
7463,116.0
7464,140.0
7465,160.0
7466,161.0
7467,194.0
7468,196.0
7469,187.0
7470,151.0
7471,115.0
7472,91.0
7473,82.0
7474,63.0
7475,36.0
7476,17.0
7477,7.0
7478,3.0
7479,3.0
7480,3.0
7481,1.0
7482,1.0
7483,1.0
7484,3.0
7485,4.0
7486,4.0
7487,5.0
7488,9.0
7489,14.0
7490,25.0
7491,31.0
7492,23.0
7493,30.0
7494,23.0
7495,20.0
7496,18.0
7497,18.0
7498,18.0
7499,19.0
7500,22.0
7501,25.0
7502,23.0
7503,21.0
7504,22.0
7505,23.0
7506,23.0
7507,22.0
7508,24.0
7509,28.0
7510,31.0
7511,40.0
7512,39.0
7513,53.0
7514,40.0
7515,24.0
7516,14.0
7517,11.0
7518,8.0
7519,6.0
7520,5.0
7521,8.0
7522,13.0
7523,13.0
7524,11.0
7525,9.0
7526,8.0
7527,7.0
7528,7.0
7529,12.0
7530,27.0
7531,51.0
7532,78.0
7533,105.0
7534,135.0
7535,163.0
7536,183.0
7537,253.0
7538,262.0
7539,231.0
7540,234.0
7541,223.0
7542,191.0
7543,173.0
7544,198.0
7545,190.0
7546,172.0
7547,163.0
7548,168.0
7549,169.0
7550,165.0
7551,177.0
7552,212.0
7553,254.0
7554,289.0
7555,312.0
7556,327.0
7557,334.0
7558,333.0
7559,326.0
7560,314.0
7561,288.0
7562,261.0
7563,252.0
7564,261.0
7565,281.0
7566,289.0
7567,288.0
7568,301.0
7569,319.0
7570,321.0
7571,318.0
7572,310.0
7573,292.0
7574,274.0
7575,266.0
7576,261.0
7577,259.0
7578,252.0
7579,245.0
7580,249.0
7581,250.0
7582,238.0
7583,217.0
7584,189.0
7585,156.0
7586,98.0
7587,92.0
7588,97.0
7589,79.0
7590,79.0
7591,99.0
7592,97.0
7593,107.0
7594,131.0
7595,150.0
7596,163.0
7597,172.0
7598,182.0
7599,191.0
7600,206.0
7601,217.0
7602,217.0
7603,204.0
7604,165.0
7605,120.0
7606,97.0
7607,83.0
7608,74.0
7609,99.0
7610,102.0
7611,99.0
7612,86.0
7613,63.0
7614,47.0
7615,28.0
7616,29.0
7617,33.0
7618,42.0
7619,46.0
7620,39.0
7621,27.0
7622,21.0
7623,21.0
7624,32.0
7625,56.0
7626,91.0
7627,130.0
7628,159.0
7629,179.0
7630,199.0
7631,220.0
7632,244.0
7633,242.0
7634,274.0
7635,299.0
7636,346.0
7637,360.0
7638,355.0
7639,357.0
7640,357.0
7641,357.0
7642,358.0
7643,359.0
7644,359.0
7645,359.0
7646,359.0
7647,359.0
7648,358.0
7649,357.0
7650,352.0
7651,344.0
7652,325.0
7653,292.0
7654,263.0
7655,250.0
7656,239.0
7657,127.0
7658,78.0
7659,71.0
7660,66.0
7661,50.0
7662,41.0
7663,41.0
7664,43.0
7665,38.0
7666,26.0
7667,24.0
7668,27.0
7669,44.0
7670,89.0
7671,191.0
7672,299.0
7673,346.0
7674,356.0
7675,359.0
7676,360.0
7677,360.0
7678,359.0
7679,357.0
7680,354.0
7681,352.0
7682,339.0
7683,329.0
7684,315.0
7685,264.0
7686,156.0
7687,82.0
7688,68.0
7689,55.0
7690,48.0
7691,26.0
7692,10.0
7693,4.0
7694,5.0
7695,14.0
7696,38.0
7697,76.0
7698,126.0
7699,182.0
7700,237.0
7701,278.0
7702,303.0
7703,318.0
7704,321.0
7705,291.0
7706,268.0
7707,259.0
7708,252.0
7709,239.0
7710,203.0
7711,166.0
7712,128.0
7713,114.0
7714,105.0
7715,91.0
7716,78.0
7717,65.0
7718,52.0
7719,49.0
7720,57.0
7721,77.0
7722,107.0
7723,166.0
7724,224.0
7725,261.0
7726,278.0
7727,275.0
7728,275.0
7729,301.0
7730,301.0
7731,309.0
7732,312.0
7733,320.0
7734,325.0
7735,322.0
7736,291.0
7737,265.0
7738,296.0
7739,329.0
7740,352.0
7741,357.0
7742,356.0
7743,352.0
7744,345.0
7745,336.0
7746,324.0
7747,306.0
7748,279.0
7749,244.0
7750,198.0
7751,149.0
7752,108.0
7753,117.0
7754,66.0
7755,25.0
7756,4.0
7757,1.0
7758,0.0
7759,0.0
7760,0.0
7761,1.0
7762,4.0
7763,5.0
7764,5.0
7765,5.0
7766,5.0
7767,6.0
7768,7.0
7769,8.0
7770,12.0
7771,26.0
7772,40.0
7773,47.0
7774,48.0
7775,47.0
7776,40.0
7777,10.0
7778,4.0
7779,1.0
7780,0.0
7781,0.0
7782,1.0
7783,3.0
7784,14.0
7785,22.0
7786,33.0
7787,36.0
7788,37.0
7789,45.0
7790,55.0
7791,61.0
7792,69.0
7793,78.0
7794,87.0
7795,93.0
7796,96.0
7797,95.0
7798,92.0
7799,87.0
7800,79.0
7801,103.0
7802,101.0
7803,101.0
7804,110.0
7805,94.0
7806,96.0
7807,81.0
7808,75.0
7809,72.0
7810,67.0
7811,57.0
7812,47.0
7813,38.0
7814,33.0
7815,37.0
7816,45.0
7817,61.0
7818,83.0
7819,99.0
7820,104.0
7821,98.0
7822,89.0
7823,89.0
7824,102.0
7825,171.0
7826,202.0
7827,207.0
7828,199.0
7829,217.0
7830,231.0
7831,243.0
7832,263.0
7833,259.0
7834,257.0
7835,246.0
7836,240.0
7837,237.0
7838,241.0
7839,253.0
7840,273.0
7841,290.0
7842,295.0
7843,295.0
7844,287.0
7845,279.0
7846,284.0
7847,288.0
7848,287.0
7849,289.0
7850,279.0
7851,293.0
7852,309.0
7853,319.0
7854,296.0
7855,280.0
7856,282.0
7857,279.0
7858,280.0
7859,274.0
7860,248.0
7861,223.0
7862,218.0
7863,229.0
7864,247.0
7865,243.0
7866,227.0
7867,216.0
7868,199.0
7869,171.0
7870,138.0
7871,110.0
7872,92.0
7873,59.0
7874,46.0
7875,34.0
7876,48.0
7877,67.0
7878,83.0
7879,87.0
7880,96.0
7881,100.0
7882,93.0
7883,75.0
7884,56.0
7885,45.0
7886,42.0
7887,45.0
7888,53.0
7889,60.0
7890,66.0
7891,72.0
7892,77.0
7893,75.0
7894,67.0
7895,63.0
7896,61.0
7897,62.0
7898,60.0
7899,57.0
7900,58.0
7901,75.0
7902,77.0
7903,68.0
7904,75.0
7905,75.0
7906,75.0
7907,65.0
7908,56.0
7909,52.0
7910,48.0
7911,45.0
7912,49.0
7913,62.0
7914,75.0
7915,83.0
7916,91.0
7917,98.0
7918,98.0
7919,95.0
7920,92.0
7921,81.0
7922,79.0
7923,80.0
7924,92.0
7925,99.0
7926,137.0
7927,127.0
7928,144.0
7929,161.0
7930,168.0
7931,166.0
7932,175.0
7933,194.0
7934,211.0
7935,229.0
7936,236.0
7937,234.0
7938,236.0
7939,238.0
7940,236.0
7941,235.0
7942,236.0
7943,237.0
7944,242.0
7945,213.0
7946,226.0
7947,238.0
7948,262.0
7949,314.0
7950,331.0
7951,318.0
7952,343.0
7953,346.0
7954,342.0
7955,342.0
7956,344.0
7957,346.0
7958,347.0
7959,345.0
7960,339.0
7961,322.0
7962,278.0
7963,238.0
7964,230.0
7965,247.0
7966,275.0
7967,300.0
7968,316.0
7969,324.0
7970,336.0
7971,351.0
7972,354.0
7973,350.0
7974,347.0
7975,315.0
7976,354.0
7977,331.0
7978,349.0
7979,350.0
7980,349.0
7981,346.0
7982,341.0
7983,329.0
7984,305.0
7985,274.0
7986,249.0
7987,227.0
7988,196.0
7989,167.0
7990,138.0
7991,115.0
7992,109.0
7993,101.0
7994,121.0
7995,128.0
7996,125.0
7997,152.0
7998,182.0
7999,214.0
8000,229.0
8001,219.0
8002,204.0
8003,194.0
8004,186.0
8005,183.0
8006,173.0
8007,151.0
8008,139.0
8009,133.0
8010,118.0
8011,101.0
8012,88.0
8013,78.0
8014,66.0
8015,58.0
8016,55.0
8017,39.0
8018,42.0
8019,41.0
8020,43.0
8021,40.0
8022,47.0
8023,50.0
8024,55.0
8025,42.0
8026,35.0
8027,32.0
8028,30.0
8029,31.0
8030,35.0
8031,45.0
8032,56.0
8033,72.0
8034,85.0
8035,87.0
8036,86.0
8037,98.0
8038,119.0
8039,149.0
8040,185.0
8041,181.0
8042,190.0
8043,226.0
8044,213.0
8045,236.0
8046,275.0
8047,252.0
8048,256.0
8049,235.0
8050,222.0
8051,235.0
8052,246.0
8053,257.0
8054,264.0
8055,265.0
8056,249.0
8057,216.0
8058,182.0
8059,147.0
8060,118.0
8061,93.0
8062,73.0
8063,64.0
8064,57.0
8065,40.0
8066,25.0
8067,15.0
8068,11.0
8069,10.0
8070,11.0
8071,12.0
8072,15.0
8073,29.0
8074,59.0
8075,93.0
8076,129.0
8077,163.0
8078,186.0
8079,214.0
8080,256.0
8081,290.0
8082,310.0
8083,326.0
8084,335.0
8085,337.0
8086,334.0
8087,326.0
8088,314.0
8089,318.0
8090,314.0
8091,275.0
8092,246.0
8093,262.0
8094,250.0
8095,234.0
8096,244.0
8097,234.0
8098,232.0
8099,218.0
8100,212.0
8101,214.0
8102,206.0
8103,195.0
8104,179.0
8105,169.0
8106,159.0
8107,142.0
8108,129.0
8109,130.0
8110,132.0
8111,135.0
8112,148.0
8113,151.0
8114,141.0
8115,154.0
8116,132.0
8117,102.0
8118,91.0
8119,76.0
8120,82.0
8121,109.0
8122,131.0
8123,143.0
8124,146.0
8125,154.0
8126,171.0
8127,206.0
8128,249.0
8129,282.0
8130,307.0
8131,325.0
8132,340.0
8133,350.0
8134,353.0
8135,355.0
8136,355.0
8137,358.0
8138,358.0
8139,358.0
8140,358.0
8141,359.0
8142,353.0
8143,358.0
8144,358.0
8145,356.0
8146,355.0
8147,355.0
8148,355.0
8149,355.0
8150,356.0
8151,356.0
8152,356.0
8153,356.0
8154,356.0
8155,356.0
8156,356.0
8157,356.0
8158,355.0
8159,355.0
8160,355.0
8161,154.0
8162,155.0
8163,154.0
8164,155.0
8165,155.0
8166,150.0
8167,144.0
8168,153.0
8169,155.0
8170,154.0
8171,154.0
8172,154.0
8173,153.0
8174,153.0
8175,154.0
8176,154.0
8177,150.0
8178,141.0
8179,125.0
8180,106.0
8181,89.0
8182,80.0
8183,81.0
8184,97.0
8185,135.0
8186,130.0
8187,64.0
8188,49.0
8189,49.0
8190,41.0
8191,45.0
8192,48.0
8193,51.0
8194,154.0
8195,154.0
8196,154.0
8197,155.0
8198,155.0
8199,155.0
8200,155.0
8201,154.0
8202,154.0
8203,154.0
8204,155.0
8205,155.0
8206,155.0
8207,154.0
8208,154.0
8209,6.0
8210,0.0
8211,0.0
8212,0.0
8213,6.0
8214,151.0
8215,149.0
8216,149.0
8217,151.0
8218,152.0
8219,153.0
8220,152.0
8221,151.0
8222,151.0
8223,148.0
8224,144.0
8225,141.0
8226,144.0
8227,148.0
8228,151.0
8229,153.0
8230,152.0
8231,150.0
8232,148.0
8233,265.0
8234,326.0
8235,274.0
8236,230.0
8237,212.0
8238,171.0
8239,129.0
8240,90.0
8241,53.0
8242,28.0
8243,24.0
8244,25.0
8245,35.0
8246,48.0
8247,73.0
8248,124.0
8249,186.0
8250,243.0
8251,292.0
8252,328.0
8253,345.0
8254,352.0
8255,355.0
8256,357.0
8257,355.0
8258,355.0
8259,357.0
8260,353.0
8261,351.0
8262,353.0
8263,352.0
8264,351.0
8265,349.0
8266,337.0
8267,310.0
8268,270.0
8269,231.0
8270,195.0
8271,163.0
8272,138.0
8273,119.0
8274,108.0
8275,98.0
8276,85.0
8277,71.0
8278,61.0
8279,52.0
8280,44.0
8281,38.0
8282,34.0
8283,36.0
8284,28.0
8285,28.0
8286,30.0
8287,39.0
8288,46.0
8289,67.0
8290,88.0
8291,104.0
8292,141.0
8293,180.0
8294,198.0
8295,209.0
8296,215.0
8297,213.0
8298,212.0
8299,212.0
8300,204.0
8301,195.0
8302,195.0
8303,205.0
8304,222.0
8305,229.0
8306,290.0
8307,319.0
8308,330.0
8309,332.0
8310,335.0
8311,338.0
8312,336.0
8313,331.0
8314,325.0
8315,320.0
8316,312.0
8317,306.0
8318,295.0
8319,277.0
8320,260.0
8321,242.0
8322,221.0
8323,190.0
8324,150.0
8325,113.0
8326,98.0
8327,86.0
8328,69.0
8329,36.0
8330,30.0
8331,40.0
8332,53.0
8333,69.0
8334,79.0
8335,93.0
8336,121.0
8337,145.0
8338,164.0
8339,169.0
8340,172.0
8341,178.0
8342,185.0
8343,186.0
8344,193.0
8345,201.0
8346,202.0
8347,197.0
8348,194.0
8349,199.0
8350,202.0
8351,203.0
8352,203.0
8353,204.0
8354,204.0
8355,202.0
8356,198.0
8357,190.0
8358,191.0
8359,191.0
8360,197.0
8361,202.0
8362,204.0
8363,204.0
8364,204.0
8365,204.0
8366,204.0
8367,200.0
8368,196.0
8369,199.0
8370,202.0
8371,204.0
8372,204.0
8373,204.0
8374,203.0
8375,203.0
8376,202.0
8377,194.0
8378,196.0
8379,192.0
8380,179.0
8381,137.0
8382,108.0
8383,155.0
8384,184.0
8385,187.0
8386,185.0
8387,184.0
8388,184.0
8389,180.0
8390,170.0
8391,157.0
8392,146.0
8393,143.0
8394,143.0
8395,139.0
8396,134.0
8397,122.0
8398,105.0
8399,85.0
8400,56.0
8401,26.0
8402,19.0
8403,15.0
8404,15.0
8405,24.0
8406,37.0
8407,52.0
8408,48.0
8409,54.0
8410,75.0
8411,110.0
8412,146.0
8413,162.0
8414,163.0
8415,167.0
8416,177.0
8417,187.0
8418,195.0
8419,197.0
8420,199.0
8421,199.0
8422,199.0
8423,198.0
8424,197.0
8425,201.0
8426,203.0
8427,202.0
8428,204.0
8429,204.0
8430,203.0
8431,196.0
8432,187.0
8433,185.0
8434,187.0
8435,186.0
8436,178.0
8437,165.0
8438,149.0
8439,136.0
8440,119.0
8441,104.0
8442,92.0
8443,75.0
8444,59.0
8445,43.0
8446,32.0
8447,27.0
8448,27.0
8449,33.0
8450,38.0
8451,53.0
8452,79.0
8453,118.0
8454,146.0
8455,160.0
8456,178.0
8457,183.0
8458,180.0
8459,171.0
8460,164.0
8461,156.0
8462,144.0
8463,138.0
8464,138.0
8465,145.0
8466,157.0
8467,167.0
8468,163.0
8469,145.0
8470,134.0
8471,131.0
8472,127.0
8473,109.0
8474,98.0
8475,66.0
8476,64.0
8477,48.0
8478,47.0
8479,56.0
8480,61.0
8481,63.0
8482,66.0
8483,72.0
8484,82.0
8485,110.0
8486,136.0
8487,143.0
8488,145.0
8489,133.0
8490,121.0
8491,118.0
8492,115.0
8493,118.0
8494,119.0
8495,127.0
8496,138.0
8497,137.0
8498,115.0
8499,107.0
8500,99.0
8501,84.0
8502,88.0
8503,91.0
8504,105.0
8505,102.0
8506,87.0
8507,76.0
8508,67.0
8509,57.0
8510,48.0
8511,47.0
8512,50.0
8513,48.0
8514,50.0
8515,64.0
8516,77.0
8517,83.0
8518,88.0
8519,87.0
8520,77.0
8521,74.0
8522,78.0
8523,68.0
8524,60.0
8525,64.0
8526,61.0
8527,71.0
8528,89.0
8529,104.0
8530,117.0
8531,109.0
8532,94.0
8533,90.0
8534,92.0
8535,102.0
8536,107.0
8537,104.0
8538,102.0
8539,100.0
8540,98.0
8541,93.0
8542,81.0
8543,66.0
8544,54.0
8545,46.0
8546,36.0
8547,32.0
8548,30.0
8549,28.0
8550,26.0
8551,26.0
8552,30.0
8553,37.0
8554,68.0
8555,111.0
8556,142.0
8557,164.0
8558,171.0
8559,170.0
8560,160.0
8561,145.0
8562,140.0
8563,137.0
8564,131.0
8565,127.0
8566,119.0
8567,114.0
8568,120.0
8569,125.0
8570,143.0
8571,147.0
8572,158.0
8573,157.0
8574,140.0
8575,122.0
8576,97.0
8577,98.0
8578,103.0
8579,99.0
8580,85.0
8581,70.0
8582,48.0
8583,32.0
8584,24.0
8585,17.0
8586,14.0
8587,14.0
8588,14.0
8589,10.0
8590,5.0
8591,3.0
8592,2.0
8593,1.0
8594,2.0
8595,2.0
8596,2.0
8597,2.0
8598,3.0
8599,4.0
8600,8.0
8601,12.0
8602,17.0
8603,22.0
8604,25.0
8605,28.0
8606,30.0
8607,31.0
8608,36.0
8609,40.0
8610,39.0
8611,42.0
8612,58.0
8613,80.0
8614,88.0
8615,95.0
8616,107.0
8617,130.0
8618,119.0
8619,135.0
8620,114.0
8621,98.0
8622,73.0
8623,60.0
8624,64.0
8625,58.0
8626,51.0
8627,47.0
8628,43.0
8629,37.0
8630,33.0
8631,28.0
8632,21.0
8633,16.0
8634,12.0
8635,10.0
8636,8.0
8637,6.0
8638,6.0
8639,8.0
8640,14.0
8641,15.0
8642,18.0
8643,15.0
8644,21.0
8645,21.0
8646,31.0
8647,35.0
8648,31.0
8649,35.0
8650,40.0
8651,41.0
8652,37.0
8653,33.0
8654,30.0
8655,26.0
8656,23.0
8657,23.0
8658,24.0
8659,23.0
8660,20.0
8661,20.0
8662,21.0
8663,22.0
8664,23.0
8665,16.0
8666,10.0
8667,6.0
8668,3.0
8669,1.0
8670,1.0
8671,1.0
8672,1.0
8673,1.0
8674,0.0
8675,0.0
8676,0.0
8677,1.0
8678,1.0
8679,3.0
8680,8.0
8681,15.0
8682,20.0
8683,23.0
8684,27.0
8685,33.0
8686,42.0
8687,57.0
8688,75.0
8689,92.0
8690,81.0
8691,81.0
8692,80.0
8693,75.0
8694,90.0
8695,106.0
8696,120.0
8697,125.0
8698,121.0
8699,117.0
8700,124.0
8701,128.0
8702,130.0
8703,136.0
8704,141.0
8705,146.0
8706,157.0
8707,168.0
8708,174.0
8709,173.0
8710,175.0
8711,184.0
8712,190.0
8713,196.0
8714,198.0
8715,199.0
8716,194.0
8717,192.0
8718,193.0
8719,199.0
8720,195.0
8721,195.0
8722,198.0
8723,199.0
8724,199.0
8725,199.0
8726,198.0
8727,198.0
8728,198.0
8729,199.0
8730,200.0
8731,200.0
8732,201.0
8733,202.0
8734,203.0
8735,203.0
8736,203.0
8737,203.0
8738,202.0
8739,199.0
8740,198.0
8741,201.0
8742,202.0
8743,203.0
8744,203.0
8745,203.0
8746,203.0
8747,201.0
8748,194.0
8749,177.0
8750,150.0
8751,118.0
8752,94.0
8753,90.0
8754,100.0
8755,113.0
8756,111.0
8757,93.0
8758,79.0
8759,75.0
