,Wind Offshore  - Actual Aggregated [MW]
0,265.0
1,340.0
2,272.0
3,214.0
4,208.0
5,208.0
6,208.0
7,210.0
8,369.0
9,369.0
10,350.0
11,341.0
12,327.0
13,326.0
14,306.0
15,327.0
16,324.0
17,248.0
18,364.0
19,368.0
20,368.0
21,220.0
22,366.0
23,210.0
24,208.0
25,208.0
26,206.0
27,174.0
28,185.0
29,208.0
30,361.0
31,361.0
32,361.0
33,359.0
34,355.0
35,359.0
36,361.0
37,360.0
38,359.0
39,335.0
40,286.0
41,284.0
42,312.0
43,309.0
44,203.0
45,155.0
46,145.0
47,166.0
48,217.0
49,263.0
50,218.0
51,233.0
52,194.0
53,188.0
54,165.0
55,205.0
56,163.0
57,129.0
58,114.0
59,102.0
60,86.0
61,88.0
62,69.0
63,75.0
64,84.0
65,52.0
66,66.0
67,33.0
68,29.0
69,32.0
70,8.0
71,41.0
72,94.0
73,167.0
74,237.0
75,335.0
76,311.0
77,326.0
78,349.0
79,339.0
80,311.0
81,333.0
82,334.0
83,325.0
84,300.0
85,182.0
86,111.0
87,161.0
88,220.0
89,318.0
90,332.0
91,317.0
92,315.0
93,322.0
94,340.0
95,317.0
96,324.0
97,308.0
98,261.0
99,272.0
100,270.0
101,268.0
102,263.0
103,211.0
104,152.0
105,85.0
106,89.0
107,71.0
108,64.0
109,81.0
110,79.0
111,76.0
112,63.0
113,42.0
114,27.0
115,19.0
116,13.0
117,5.0
118,3.0
119,0.0
120,1.0
121,1.0
122,0.0
123,0.0
124,0.0
125,0.0
126,0.0
127,0.0
128,0.0
129,0.0
130,1.0
131,1.0
132,0.0
133,5.0
134,2.0
135,0.0
136,1.0
137,5.0
138,20.0
139,33.0
140,37.0
141,32.0
142,35.0
143,44.0
144,51.0
145,17.0
146,18.0
147,66.0
148,69.0
149,62.0
150,53.0
151,47.0
152,60.0
153,57.0
154,71.0
155,96.0
156,87.0
157,119.0
158,71.0
159,94.0
160,203.0
161,319.0
162,370.0
163,371.0
164,371.0
165,371.0
166,367.0
167,360.0
168,370.0
169,368.0
170,363.0
171,369.0
172,365.0
173,366.0
174,369.0
175,366.0
176,361.0
177,358.0
178,363.0
179,365.0
180,368.0
181,370.0
182,365.0
183,370.0
184,369.0
185,367.0
186,365.0
187,370.0
188,371.0
189,370.0
190,358.0
191,350.0
192,350.0
193,350.0
194,350.0
195,350.0
196,346.0
197,345.0
198,347.0
199,345.0
200,349.0
201,345.0
202,349.0
203,347.0
204,341.0
205,326.0
206,332.0
207,337.0
208,335.0
209,332.0
210,299.0
211,208.0
212,147.0
213,133.0
214,126.0
215,114.0
216,74.0
217,46.0
218,55.0
219,37.0
220,27.0
221,24.0
222,27.0
223,25.0
224,25.0
225,30.0
226,16.0
227,0.0
228,0.0
229,0.0
230,0.0
231,0.0
232,3.0
233,17.0
234,37.0
235,53.0
236,85.0
237,119.0
238,164.0
239,231.0
240,288.0
241,289.0
242,270.0
243,259.0
244,250.0
245,277.0
246,300.0
247,315.0
248,340.0
249,337.0
250,333.0
251,340.0
252,339.0
253,332.0
254,324.0
255,289.0
256,245.0
257,214.0
258,188.0
259,159.0
260,158.0
261,153.0
262,124.0
263,125.0
264,162.0
265,186.0
266,190.0
267,213.0
268,227.0
269,132.0
270,206.0
271,253.0
272,276.0
273,299.0
274,313.0
275,311.0
276,313.0
277,354.0
278,357.0
279,359.0
280,362.0
281,364.0
282,364.0
283,363.0
284,355.0
285,360.0
286,360.0
287,356.0
288,346.0
289,350.0
290,341.0
291,310.0
292,278.0
293,309.0
294,355.0
295,351.0
296,340.0
297,316.0
298,367.0
299,370.0
300,369.0
301,368.0
302,370.0
303,369.0
304,369.0
305,369.0
306,371.0
307,370.0
308,371.0
309,371.0
310,371.0
311,371.0
312,369.0
313,244.0
314,219.0
315,222.0
316,364.0
317,365.0
318,371.0
319,370.0
320,368.0
321,370.0
322,367.0
323,367.0
324,367.0
325,367.0
326,367.0
327,366.0
328,367.0
329,368.0
330,368.0
331,368.0
332,354.0
333,336.0
334,320.0
335,350.0
336,362.0
337,366.0
338,365.0
339,346.0
340,362.0
341,358.0
342,358.0
343,360.0
344,322.0
345,327.0
346,351.0
347,355.0
348,353.0
349,361.0
350,365.0
351,365.0
352,365.0
353,367.0
354,368.0
355,365.0
356,351.0
357,364.0
358,367.0
359,357.0
360,293.0
361,308.0
362,363.0
363,358.0
364,351.0
365,354.0
366,361.0
367,324.0
368,280.0
369,264.0
370,237.0
371,256.0
372,254.0
373,325.0
374,331.0
375,356.0
376,360.0
377,366.0
378,368.0
379,370.0
380,371.0
381,371.0
382,371.0
383,371.0
384,371.0
385,369.0
386,368.0
387,328.0
388,331.0
389,304.0
390,353.0
391,369.0
392,367.0
393,366.0
394,364.0
395,368.0
396,367.0
397,366.0
398,361.0
399,360.0
400,281.0
401,166.0
402,206.0
403,174.0
404,244.0
405,311.0
406,353.0
407,335.0
408,339.0
409,279.0
410,217.0
411,99.0
412,64.0
413,119.0
414,62.0
415,23.0
416,24.0
417,83.0
418,156.0
419,281.0
420,278.0
421,256.0
422,216.0
423,217.0
424,164.0
425,108.0
426,80.0
427,81.0
428,85.0
429,101.0
430,121.0
431,123.0
432,100.0
433,99.0
434,94.0
435,67.0
436,42.0
437,32.0
438,25.0
439,17.0
440,20.0
441,22.0
442,19.0
443,26.0
444,37.0
445,21.0
446,8.0
447,2.0
448,2.0
449,1.0
450,2.0
451,8.0
452,13.0
453,8.0
454,14.0
455,11.0
456,6.0
457,4.0
458,2.0
459,3.0
460,4.0
461,4.0
462,1.0
463,1.0
464,1.0
465,2.0
466,2.0
467,1.0
468,1.0
469,1.0
470,3.0
471,7.0
472,12.0
473,9.0
474,14.0
475,11.0
476,15.0
477,25.0
478,32.0
479,59.0
480,76.0
481,73.0
482,82.0
483,114.0
484,142.0
485,167.0
486,192.0
487,281.0
488,321.0
489,342.0
490,318.0
491,331.0
492,259.0
493,252.0
494,267.0
495,281.0
496,305.0
497,269.0
498,262.0
499,256.0
500,213.0
501,186.0
502,169.0
503,140.0
504,122.0
505,82.0
506,58.0
507,36.0
508,12.0
509,4.0
510,24.0
511,63.0
512,69.0
513,48.0
514,40.0
515,60.0
516,72.0
517,71.0
518,126.0
519,151.0
520,193.0
521,254.0
522,318.0
523,343.0
524,339.0
525,325.0
526,333.0
527,292.0
528,265.0
529,235.0
530,187.0
531,173.0
532,169.0
533,166.0
534,179.0
535,180.0
536,171.0
537,123.0
538,61.0
539,50.0
540,54.0
541,41.0
542,50.0
543,77.0
544,94.0
545,103.0
546,93.0
547,90.0
548,111.0
549,108.0
550,102.0
551,92.0
552,78.0
553,71.0
554,57.0
555,41.0
556,35.0
557,33.0
558,32.0
559,31.0
560,28.0
561,35.0
562,27.0
563,19.0
564,13.0
565,9.0
566,5.0
567,5.0
568,11.0
569,5.0
570,1.0
571,0.0
572,1.0
573,3.0
574,4.0
575,2.0
576,2.0
577,6.0
578,12.0
579,8.0
580,1.0
581,3.0
582,10.0
583,2.0
584,18.0
585,47.0
586,77.0
587,71.0
588,56.0
589,63.0
590,73.0
591,78.0
592,84.0
593,75.0
594,84.0
595,124.0
596,161.0
597,200.0
598,200.0
599,179.0
600,125.0
601,127.0
602,107.0
603,70.0
604,34.0
605,31.0
606,40.0
607,30.0
608,29.0
609,28.0
610,39.0
611,51.0
612,53.0
613,67.0
614,60.0
615,44.0
616,21.0
617,26.0
618,59.0
619,70.0
620,74.0
621,97.0
622,137.0
623,161.0
624,156.0
625,190.0
626,238.0
627,229.0
628,228.0
629,235.0
630,265.0
631,262.0
632,238.0
633,229.0
634,209.0
635,259.0
636,210.0
637,145.0
638,156.0
639,206.0
640,191.0
641,218.0
642,205.0
643,213.0
644,222.0
645,228.0
646,178.0
647,125.0
648,107.0
649,71.0
650,83.0
651,96.0
652,76.0
653,129.0
654,126.0
655,42.0
656,39.0
657,61.0
658,59.0
659,53.0
660,44.0
661,39.0
662,17.0
663,4.0
664,3.0
665,4.0
666,8.0
667,55.0
668,119.0
669,140.0
670,166.0
671,216.0
672,201.0
673,193.0
674,200.0
675,214.0
676,179.0
677,120.0
678,91.0
679,110.0
680,94.0
681,118.0
682,102.0
683,128.0
684,119.0
685,137.0
686,170.0
687,105.0
688,96.0
689,142.0
690,122.0
691,233.0
692,257.0
693,204.0
694,178.0
695,146.0
696,75.0
697,39.0
698,31.0
699,33.0
700,53.0
701,62.0
702,105.0
703,131.0
704,169.0
705,186.0
706,231.0
707,227.0
708,198.0
709,179.0
710,266.0
711,346.0
712,340.0
713,345.0
714,348.0
715,363.0
716,365.0
717,366.0
718,364.0
719,359.0
720,350.0
721,338.0
722,321.0
723,264.0
724,232.0
725,227.0
726,241.0
727,236.0
728,226.0
729,189.0
730,121.0
731,102.0
732,87.0
733,89.0
734,91.0
735,52.0
736,26.0
737,13.0
738,17.0
739,50.0
740,47.0
741,47.0
742,45.0
743,74.0
744,44.0
745,30.0
746,34.0
747,58.0
748,99.0
749,114.0
750,124.0
751,166.0
752,229.0
753,298.0
754,297.0
755,281.0
756,265.0
757,212.0
758,191.0
759,138.0
760,139.0
761,141.0
762,96.0
763,65.0
764,41.0
765,34.0
766,19.0
767,29.0
768,26.0
769,16.0
770,19.0
771,24.0
772,34.0
773,65.0
774,84.0
775,62.0
776,59.0
777,57.0
778,65.0
779,53.0
780,69.0
781,123.0
782,126.0
783,95.0
784,69.0
785,54.0
786,51.0
787,55.0
788,57.0
789,74.0
790,67.0
791,34.0
792,39.0
793,77.0
794,78.0
795,117.0
796,112.0
797,78.0
798,81.0
799,119.0
800,93.0
801,78.0
802,62.0
803,93.0
804,110.0
805,107.0
806,117.0
807,92.0
808,66.0
809,31.0
810,18.0
811,8.0
812,8.0
813,13.0
814,14.0
815,21.0
816,38.0
817,41.0
818,40.0
819,49.0
820,52.0
821,67.0
822,91.0
823,192.0
824,277.0
825,332.0
826,354.0
827,358.0
828,356.0
829,356.0
830,363.0
831,369.0
832,369.0
833,369.0
834,369.0
835,369.0
836,368.0
837,367.0
838,367.0
839,366.0
840,365.0
841,364.0
842,364.0
843,363.0
844,355.0
845,350.0
846,355.0
847,365.0
848,367.0
849,369.0
850,366.0
851,359.0
852,364.0
853,366.0
854,365.0
855,367.0
856,365.0
857,361.0
858,338.0
859,300.0
860,317.0
861,305.0
862,258.0
863,275.0
864,193.0
865,135.0
866,70.0
867,69.0
868,78.0
869,97.0
870,168.0
871,200.0
872,203.0
873,267.0
874,291.0
875,302.0
876,286.0
877,287.0
878,250.0
879,287.0
880,285.0
881,297.0
882,255.0
883,181.0
884,172.0
885,121.0
886,93.0
887,98.0
888,84.0
889,113.0
890,95.0
891,129.0
892,131.0
893,183.0
894,139.0
895,177.0
896,234.0
897,264.0
898,326.0
899,326.0
900,365.0
901,368.0
902,370.0
903,368.0
904,367.0
905,366.0
906,370.0
907,371.0
908,371.0
909,370.0
910,368.0
911,369.0
912,358.0
913,356.0
914,368.0
915,370.0
916,361.0
917,352.0
918,349.0
919,351.0
920,341.0
921,339.0
922,365.0
923,355.0
924,358.0
925,348.0
926,357.0
927,367.0
928,371.0
929,371.0
930,371.0
931,371.0
932,371.0
933,370.0
934,371.0
935,369.0
936,368.0
937,365.0
938,259.0
939,224.0
940,360.0
941,368.0
942,369.0
943,369.0
944,369.0
945,368.0
946,368.0
947,365.0
948,359.0
949,363.0
950,368.0
951,368.0
952,362.0
953,368.0
954,368.0
955,367.0
956,369.0
957,369.0
958,369.0
959,369.0
960,367.0
961,339.0
962,290.0
963,274.0
964,237.0
965,252.0
966,248.0
967,357.0
968,362.0
969,299.0
970,276.0
971,282.0
972,231.0
973,131.0
974,98.0
975,88.0
976,47.0
977,22.0
978,10.0
979,73.0
980,156.0
981,232.0
982,243.0
983,205.0
984,245.0
985,331.0
986,248.0
987,269.0
988,336.0
989,347.0
990,360.0
991,362.0
992,365.0
993,366.0
994,366.0
995,368.0
996,368.0
997,368.0
998,369.0
999,367.0
1000,309.0
1001,236.0
1002,286.0
1003,326.0
1004,295.0
1005,314.0
1006,356.0
1007,362.0
1008,356.0
1009,349.0
1010,323.0
1011,326.0
1012,282.0
1013,254.0
1014,222.0
1015,179.0
1016,161.0
1017,144.0
1018,98.0
1019,63.0
1020,79.0
1021,110.0
1022,132.0
1023,109.0
1024,100.0
1025,67.0
1026,69.0
1027,96.0
1028,163.0
1029,265.0
1030,293.0
1031,327.0
1032,359.0
1033,363.0
1034,356.0
1035,360.0
1036,360.0
1037,360.0
1038,362.0
1039,360.0
1040,358.0
1041,346.0
1042,329.0
1043,340.0
1044,332.0
1045,304.0
1046,285.0
1047,344.0
1048,356.0
1049,343.0
1050,330.0
1051,345.0
1052,307.0
1053,241.0
1054,249.0
1055,261.0
1056,287.0
1057,246.0
1058,201.0
1059,233.0
1060,200.0
1061,223.0
1062,123.0
1063,131.0
1064,90.0
1065,98.0
1066,59.0
1067,47.0
1068,37.0
1069,27.0
1070,15.0
1071,5.0
1072,14.0
1073,23.0
1074,54.0
1075,97.0
1076,107.0
1077,119.0
1078,67.0
1079,59.0
1080,67.0
1081,74.0
1082,67.0
1083,32.0
1084,15.0
1085,4.0
1086,0.0
1087,2.0
1088,7.0
1089,9.0
1090,10.0
1091,19.0
1092,33.0
1093,43.0
1094,52.0
1095,69.0
1096,73.0
1097,101.0
1098,134.0
1099,187.0
1100,268.0
1101,287.0
1102,316.0
1103,307.0
1104,262.0
1105,247.0
1106,199.0
1107,153.0
1108,173.0
1109,212.0
1110,243.0
1111,235.0
1112,278.0
1113,291.0
1114,202.0
1115,118.0
1116,129.0
1117,196.0
1118,173.0
1119,173.0
1120,175.0
1121,155.0
1122,138.0
1123,200.0
1124,179.0
1125,165.0
1126,182.0
1127,166.0
1128,69.0
1129,83.0
1130,82.0
1131,54.0
1132,58.0
1133,75.0
1134,80.0
1135,78.0
1136,43.0
1137,45.0
1138,27.0
1139,24.0
1140,37.0
1141,36.0
1142,42.0
1143,19.0
1144,10.0
1145,44.0
1146,88.0
1147,129.0
1148,173.0
1149,167.0
1150,169.0
1151,204.0
1152,165.0
1153,130.0
1154,148.0
1155,153.0
1156,115.0
1157,85.0
1158,72.0
1159,61.0
1160,65.0
1161,57.0
1162,59.0
1163,33.0
1164,4.0
1165,27.0
1166,75.0
1167,77.0
1168,43.0
1169,38.0
1170,59.0
1171,103.0
1172,117.0
1173,188.0
1174,206.0
1175,148.0
1176,104.0
1177,60.0
1178,32.0
1179,82.0
1180,99.0
1181,214.0
1182,308.0
1183,212.0
1184,260.0
1185,305.0
1186,311.0
1187,329.0
1188,350.0
1189,346.0
1190,348.0
1191,324.0
1192,357.0
1193,368.0
1194,368.0
1195,367.0
1196,368.0
1197,361.0
1198,365.0
1199,365.0
1200,358.0
1201,365.0
1202,358.0
1203,320.0
1204,301.0
1205,302.0
1206,277.0
1207,197.0
1208,179.0
1209,151.0
1210,165.0
1211,123.0
1212,126.0
1213,129.0
1214,128.0
1215,138.0
1216,144.0
1217,116.0
1218,97.0
1219,88.0
1220,144.0
1221,192.0
1222,221.0
1223,256.0
1224,208.0
1225,174.0
1226,200.0
1227,220.0
1228,227.0
1229,206.0
1230,189.0
1231,234.0
1232,299.0
1233,316.0
1234,241.0
1235,246.0
1236,259.0
1237,241.0
1238,326.0
1239,316.0
1240,333.0
1241,294.0
1242,271.0
1243,283.0
1244,240.0
1245,205.0
1246,116.0
1247,87.0
1248,177.0
1249,307.0
1250,334.0
1251,302.0
1252,280.0
1253,280.0
1254,318.0
1255,299.0
1256,245.0
1257,216.0
1258,170.0
1259,153.0
1260,144.0
1261,137.0
1262,131.0
1263,136.0
1264,110.0
1265,105.0
1266,92.0
1267,95.0
1268,97.0
1269,83.0
1270,93.0
1271,73.0
1272,123.0
1273,117.0
1274,84.0
1275,100.0
1276,61.0
1277,53.0
1278,31.0
1279,76.0
1280,115.0
1281,62.0
1282,77.0
1283,69.0
1284,51.0
1285,47.0
1286,28.0
1287,14.0
1288,9.0
1289,5.0
1290,17.0
1291,53.0
1292,91.0
1293,109.0
1294,141.0
1295,110.0
1296,79.0
1297,58.0
1298,52.0
1299,46.0
1300,28.0
1301,30.0
1302,38.0
1303,23.0
1304,14.0
1305,28.0
1306,29.0
1307,31.0
1308,17.0
1309,18.0
1310,20.0
1311,24.0
1312,40.0
1313,48.0
1314,62.0
1315,61.0
1316,73.0
1317,96.0
1318,84.0
1319,56.0
1320,48.0
1321,74.0
1322,73.0
1323,34.0
1324,15.0
1325,11.0
1326,5.0
1327,6.0
1328,12.0
1329,15.0
1330,25.0
1331,35.0
1332,50.0
1333,50.0
1334,82.0
1335,102.0
1336,137.0
1337,150.0
1338,197.0
1339,183.0
1340,182.0
1341,215.0
1342,170.0
1343,115.0
1344,122.0
1345,126.0
1346,122.0
1347,95.0
1348,88.0
1349,58.0
1350,45.0
1351,40.0
1352,38.0
1353,17.0
1354,20.0
1355,21.0
1356,3.0
1357,0.0
1358,5.0
1359,15.0
1360,17.0
1361,5.0
1362,5.0
1363,26.0
1364,36.0
1365,40.0
1366,47.0
1367,61.0
1368,58.0
1369,49.0
1370,58.0
1371,57.0
1372,82.0
1373,103.0
1374,126.0
1375,137.0
1376,125.0
1377,135.0
1378,145.0
1379,93.0
1380,95.0
1381,103.0
1382,88.0
1383,66.0
1384,38.0
1385,54.0
1386,79.0
1387,175.0
1388,220.0
1389,154.0
1390,191.0
1391,258.0
1392,304.0
1393,311.0
1394,311.0
1395,316.0
1396,293.0
1397,288.0
1398,278.0
1399,272.0
1400,185.0
1401,204.0
1402,133.0
1403,80.0
1404,101.0
1405,121.0
1406,140.0
1407,116.0
1408,67.0
1409,50.0
1410,43.0
1411,26.0
1412,73.0
1413,79.0
1414,72.0
1415,82.0
1416,67.0
1417,67.0
1418,48.0
1419,44.0
1420,37.0
1421,38.0
1422,43.0
1423,36.0
1424,22.0
1425,3.0
1426,10.0
1427,14.0
1428,18.0
1429,6.0
1430,0.0
1431,1.0
1432,1.0
1433,1.0
1434,2.0
1435,2.0
1436,4.0
1437,9.0
1438,14.0
1439,18.0
1440,23.0
1441,26.0
1442,38.0
1443,34.0
1444,11.0
1445,9.0
1446,13.0
1447,20.0
1448,15.0
1449,10.0
1450,10.0
1451,37.0
1452,30.0
1453,22.0
1454,49.0
1455,40.0
1456,110.0
1457,142.0
1458,151.0
1459,147.0
1460,186.0
1461,277.0
1462,328.0
1463,362.0
1464,342.0
1465,349.0
1466,310.0
1467,365.0
1468,263.0
1469,364.0
1470,308.0
1471,286.0
1472,363.0
1473,358.0
1474,310.0
1475,312.0
1476,224.0
1477,143.0
1478,213.0
1479,139.0
1480,104.0
1481,140.0
1482,46.0
1483,9.0
1484,60.0
1485,242.0
1486,358.0
1487,342.0
1488,353.0
1489,359.0
1490,209.0
1491,208.0
1492,208.0
1493,362.0
1494,364.0
1495,364.0
1496,360.0
1497,356.0
1498,368.0
1499,337.0
1500,329.0
1501,368.0
1502,354.0
1503,355.0
1504,361.0
1505,369.0
1506,369.0
1507,369.0
1508,367.0
1509,368.0
1510,299.0
1511,207.0
1512,173.0
1513,176.0
1514,33.0
1515,298.0
1516,368.0
1517,369.0
1518,366.0
1519,366.0
1520,365.0
1521,343.0
1522,342.0
1523,360.0
1524,357.0
1525,358.0
1526,356.0
1527,360.0
1528,359.0
1529,358.0
1530,359.0
1531,358.0
1532,355.0
1533,307.0
1534,278.0
1535,172.0
1536,36.0
1537,47.0
1538,84.0
1539,76.0
1540,79.0
1541,120.0
1542,130.0
1543,176.0
1544,158.0
1545,126.0
1546,158.0
1547,186.0
1548,224.0
1549,304.0
1550,309.0
1551,293.0
1552,322.0
1553,363.0
1554,365.0
1555,365.0
1556,362.0
1557,322.0
1558,311.0
1559,317.0
1560,306.0
1561,339.0
1562,346.0
1563,344.0
1564,335.0
1565,341.0
1566,306.0
1567,258.0
1568,244.0
1569,309.0
1570,344.0
1571,339.0
1572,350.0
1573,365.0
1574,362.0
1575,350.0
1576,260.0
1577,251.0
1578,303.0
1579,357.0
1580,350.0
1581,365.0
1582,365.0
1583,364.0
1584,365.0
1585,365.0
1586,365.0
1587,365.0
1588,361.0
1589,356.0
1590,364.0
1591,363.0
1592,366.0
1593,365.0
1594,366.0
1595,368.0
1596,369.0
1597,368.0
1598,331.0
1599,326.0
1600,326.0
1601,324.0
1602,368.0
1603,359.0
1604,331.0
1605,260.0
1606,223.0
1607,185.0
1608,219.0
1609,225.0
1610,300.0
1611,321.0
1612,358.0
1613,361.0
1614,366.0
1615,366.0
1616,367.0
1617,369.0
1618,369.0
1619,369.0
1620,369.0
1621,356.0
1622,341.0
1623,368.0
1624,368.0
1625,254.0
1626,211.0
1627,185.0
1628,341.0
1629,368.0
1630,369.0
1631,368.0
1632,218.0
1633,214.0
1634,213.0
1635,163.0
1636,222.0
1637,364.0
1638,360.0
1639,346.0
1640,349.0
1641,318.0
1642,271.0
1643,216.0
1644,141.0
1645,72.0
1646,34.0
1647,18.0
1648,31.0
1649,61.0
1650,117.0
1651,114.0
1652,154.0
1653,252.0
1654,180.0
1655,117.0
1656,47.0
1657,21.0
1658,16.0
1659,36.0
1660,78.0
1661,96.0
1662,37.0
1663,14.0
1664,0.0
1665,2.0
1666,10.0
1667,22.0
1668,31.0
1669,25.0
1670,25.0
1671,21.0
1672,24.0
1673,54.0
1674,48.0
1675,38.0
1676,28.0
1677,31.0
1678,73.0
1679,86.0
1680,80.0
1681,56.0
1682,49.0
1683,65.0
1684,93.0
1685,102.0
1686,131.0
1687,123.0
1688,184.0
1689,172.0
1690,264.0
1691,247.0
1692,280.0
1693,317.0
1694,340.0
1695,315.0
1696,362.0
1697,347.0
1698,365.0
1699,346.0
1700,358.0
1701,351.0
1702,368.0
1703,367.0
1704,367.0
1705,368.0
1706,366.0
1707,355.0
1708,349.0
1709,358.0
1710,367.0
1711,369.0
1712,368.0
1713,368.0
1714,367.0
1715,366.0
1716,366.0
1717,366.0
1718,366.0
1719,366.0
1720,365.0
1721,362.0
1722,366.0
1723,366.0
1724,366.0
1725,359.0
1726,342.0
1727,341.0
1728,354.0
1729,357.0
1730,360.0
1731,357.0
1732,346.0
1733,340.0
1734,300.0
1735,241.0
1736,247.0
1737,306.0
1738,291.0
1739,327.0
1740,327.0
1741,348.0
1742,363.0
1743,360.0
1744,327.0
1745,294.0
1746,209.0
1747,189.0
1748,167.0
1749,226.0
1750,297.0
1751,319.0
1752,314.0
1753,293.0
1754,334.0
1755,332.0
1756,346.0
1757,353.0
1758,320.0
1759,208.0
1760,255.0
1761,160.0
1762,126.0
1763,229.0
1764,332.0
1765,339.0
1766,364.0
1767,366.0
1768,368.0
1769,336.0
1770,200.0
1771,354.0
1772,355.0
1773,359.0
1774,360.0
1775,363.0
1776,363.0
1777,363.0
1778,366.0
1779,361.0
1780,361.0
1781,361.0
1782,362.0
1783,351.0
1784,350.0
1785,327.0
1786,262.0
1787,194.0
1788,84.0
1789,101.0
1790,140.0
1791,129.0
1792,146.0
1793,212.0
1794,249.0
1795,359.0
1796,366.0
1797,365.0
1798,363.0
1799,365.0
1800,215.0
1801,207.0
1802,208.0
1803,208.0
1804,208.0
1805,208.0
1806,206.0
1807,206.0
1808,182.0
1809,266.0
1810,326.0
1811,328.0
1812,301.0
1813,294.0
1814,332.0
1815,339.0
1816,336.0
1817,334.0
1818,341.0
1819,344.0
1820,344.0
1821,344.0
1822,344.0
1823,344.0
1824,298.0
1825,291.0
1826,296.0
1827,344.0
1828,341.0
1829,340.0
1830,344.0
1831,309.0
1832,346.0
1833,347.0
1834,346.0
1835,344.0
1836,346.0
1837,344.0
1838,344.0
1839,342.0
1840,344.0
1841,342.0
1842,340.0
1843,337.0
1844,305.0
1845,281.0
1846,247.0
1847,207.0
1848,138.0
1849,145.0
1850,122.0
1851,100.0
1852,87.0
1853,104.0
1854,78.0
1855,63.0
1856,32.0
1857,27.0
1858,5.0
1859,5.0
1860,21.0
1861,34.0
1862,44.0
1863,41.0
1864,30.0
1865,21.0
1866,6.0
1867,0.0
1868,3.0
1869,42.0
1870,60.0
1871,36.0
1872,41.0
1873,48.0
1874,70.0
1875,105.0
1876,155.0
1877,220.0
1878,227.0
1879,205.0
1880,193.0
1881,182.0
1882,270.0
1883,315.0
1884,277.0
1885,218.0
1886,294.0
1887,266.0
1888,253.0
1889,246.0
1890,272.0
1891,189.0
1892,116.0
1893,143.0
1894,162.0
1895,146.0
1896,99.0
1897,126.0
1898,157.0
1899,182.0
1900,141.0
1901,199.0
1902,232.0
1903,255.0
1904,271.0
1905,206.0
1906,232.0
1907,231.0
1908,276.0
1909,247.0
1910,192.0
1911,195.0
1912,228.0
1913,251.0
1914,267.0
1915,226.0
1916,208.0
1917,256.0
1918,286.0
1919,165.0
1920,138.0
1921,151.0
1922,107.0
1923,59.0
1924,14.0
1925,0.0
1926,0.0
1927,0.0
1928,2.0
1929,1.0
1930,0.0
1931,3.0
1932,7.0
1933,9.0
1934,14.0
1935,14.0
1936,14.0
1937,17.0
1938,49.0
1939,82.0
1940,160.0
1941,180.0
1942,154.0
1943,149.0
1944,173.0
1945,228.0
1946,203.0
1947,138.0
1948,76.0
1949,92.0
1950,127.0
1951,140.0
1952,127.0
1953,99.0
1954,115.0
1955,161.0
1956,196.0
1957,172.0
1958,146.0
1959,143.0
1960,103.0
1961,194.0
1962,260.0
1963,247.0
1964,200.0
1965,158.0
1966,122.0
1967,95.0
1968,80.0
1969,91.0
1970,89.0
1971,67.0
1972,45.0
1973,36.0
1974,20.0
1975,17.0
1976,19.0
1977,18.0
1978,22.0
1979,17.0
1980,23.0
1981,35.0
1982,45.0
1983,31.0
1984,29.0
1985,105.0
1986,231.0
1987,226.0
1988,229.0
1989,176.0
1990,184.0
1991,233.0
1992,256.0
1993,291.0
1994,318.0
1995,339.0
1996,347.0
1997,326.0
1998,302.0
1999,290.0
2000,231.0
2001,156.0
2002,132.0
2003,133.0
2004,208.0
2005,197.0
2006,260.0
2007,219.0
2008,171.0
2009,189.0
2010,139.0
2011,123.0
2012,111.0
2013,63.0
2014,67.0
2015,49.0
2016,106.0
2017,232.0
2018,298.0
2019,355.0
2020,356.0
2021,339.0
2022,355.0
2023,362.0
2024,356.0
2025,339.0
2026,310.0
2027,305.0
2028,289.0
2029,268.0
2030,236.0
2031,165.0
2032,102.0
2033,36.0
2034,16.0
2035,3.0
2036,19.0
2037,73.0
2038,75.0
2039,82.0
2040,111.0
2041,159.0
2042,146.0
2043,149.0
2044,159.0
2045,178.0
2046,251.0
2047,247.0
2048,289.0
2049,285.0
2050,285.0
2051,313.0
2052,308.0
2053,317.0
2054,314.0
2055,326.0
2056,335.0
2057,288.0
2058,290.0
2059,277.0
2060,293.0
2061,289.0
2062,253.0
2063,221.0
2064,165.0
2065,197.0
2066,246.0
2067,256.0
2068,231.0
2069,168.0
2070,158.0
2071,100.0
2072,52.0
2073,29.0
2074,50.0
2075,81.0
2076,74.0
2077,66.0
2078,55.0
2079,45.0
2080,39.0
2081,38.0
2082,38.0
2083,52.0
2084,93.0
2085,91.0
2086,170.0
2087,162.0
2088,166.0
2089,96.0
2090,92.0
2091,100.0
2092,91.0
2093,107.0
2094,141.0
2095,140.0
2096,153.0
2097,149.0
2098,148.0
2099,154.0
2100,147.0
2101,148.0
2102,110.0
2103,98.0
2104,125.0
2105,112.0
2106,119.0
2107,93.0
2108,87.0
2109,65.0
2110,47.0
2111,49.0
2112,54.0
2113,42.0
2114,35.0
2115,29.0
2116,37.0
2117,39.0
2118,35.0
2119,46.0
2120,64.0
2121,78.0
2122,61.0
2123,41.0
2124,61.0
2125,73.0
2126,33.0
2127,48.0
2128,37.0
2129,53.0
2130,109.0
2131,211.0
2132,243.0
2133,214.0
2134,174.0
2135,271.0
2136,236.0
2137,147.0
2138,150.0
2139,152.0
2140,188.0
2141,208.0
2142,189.0
2143,264.0
2144,309.0
2145,296.0
2146,254.0
2147,209.0
2148,159.0
2149,109.0
2150,104.0
2151,61.0
2152,38.0
2153,34.0
2154,31.0
2155,26.0
2156,21.0
2157,7.0
2158,1.0
2159,7.0
2160,8.0
2161,2.0
2162,0.0
2163,0.0
2164,0.0
2165,0.0
2166,2.0
2167,3.0
2168,1.0
2169,1.0
2170,1.0
2171,2.0
2172,4.0
2173,5.0
2174,8.0
2175,33.0
2176,62.0
2177,99.0
2178,154.0
2179,147.0
2180,180.0
2181,260.0
2182,279.0
2183,234.0
2184,199.0
2185,236.0
2186,294.0
2187,323.0
2188,334.0
2189,338.0
2190,348.0
2191,358.0
2192,354.0
2193,352.0
2194,313.0
2195,225.0
2196,204.0
2197,237.0
2198,224.0
2199,202.0
2200,225.0
2201,264.0
2202,287.0
2203,335.0
2204,358.0
2205,367.0
2206,356.0
2207,351.0
2208,271.0
2209,336.0
2210,278.0
2211,261.0
2212,249.0
2213,273.0
2214,130.0
2215,93.0
2216,77.0
2217,120.0
2218,67.0
2219,17.0
2220,4.0
2221,1.0
2222,5.0
2223,55.0
2224,107.0
2225,88.0
2226,95.0
2227,134.0
2228,114.0
2229,86.0
2230,99.0
2231,151.0
2232,270.0
2233,274.0
2234,229.0
2235,223.0
2236,210.0
2237,149.0
2238,133.0
2239,170.0
2240,172.0
2241,140.0
2242,91.0
2243,67.0
2244,68.0
2245,127.0
2246,214.0
2247,189.0
2248,233.0
2249,241.0
2250,189.0
2251,201.0
2252,197.0
2253,157.0
2254,118.0
2255,94.0
2256,82.0
2257,79.0
2258,86.0
2259,68.0
2260,67.0
2261,68.0
2262,46.0
2263,63.0
2264,79.0
2265,164.0
2266,186.0
2267,168.0
2268,254.0
2269,253.0
2270,274.0
2271,292.0
2272,310.0
2273,312.0
2274,343.0
2275,342.0
2276,334.0
2277,233.0
2278,186.0
2279,87.0
2280,31.0
2281,26.0
2282,7.0
2283,12.0
2284,16.0
2285,15.0
2286,42.0
2287,56.0
2288,55.0
2289,58.0
2290,73.0
2291,63.0
2292,89.0
2293,103.0
2294,169.0
2295,216.0
2296,217.0
2297,185.0
2298,175.0
2299,187.0
2300,189.0
2301,173.0
2302,142.0
2303,93.0
2304,106.0
2305,148.0
2306,117.0
2307,62.0
2308,46.0
2309,50.0
2310,37.0
2311,19.0
2312,16.0
2313,9.0
2314,4.0
2315,1.0
2316,1.0
2317,4.0
2318,9.0
2319,7.0
2320,19.0
2321,30.0
2322,34.0
2323,28.0
2324,18.0
2325,7.0
2326,1.0
2327,0.0
2328,1.0
2329,1.0
2330,5.0
2331,12.0
2332,20.0
2333,25.0
2334,52.0
2335,107.0
2336,122.0
2337,107.0
2338,133.0
2339,199.0
2340,269.0
2341,296.0
2342,268.0
2343,214.0
2344,162.0
2345,94.0
2346,57.0
2347,46.0
2348,34.0
2349,29.0
2350,43.0
2351,51.0
2352,44.0
2353,30.0
2354,23.0
2355,21.0
2356,17.0
2357,3.0
2358,2.0
2359,3.0
2360,4.0
2361,6.0
2362,4.0
2363,22.0
2364,18.0
2365,15.0
2366,11.0
2367,14.0
2368,15.0
2369,12.0
2370,22.0
2371,50.0
2372,47.0
2373,88.0
2374,73.0
2375,71.0
2376,59.0
2377,53.0
2378,43.0
2379,13.0
2380,5.0
2381,8.0
2382,12.0
2383,7.0
2384,20.0
2385,17.0
2386,6.0
2387,1.0
2388,1.0
2389,1.0
2390,1.0
2391,13.0
2392,88.0
2393,103.0
2394,103.0
2395,101.0
2396,98.0
2397,96.0
2398,70.0
2399,52.0
2400,42.0
2401,23.0
2402,15.0
2403,14.0
2404,5.0
2405,13.0
2406,50.0
2407,52.0
2408,37.0
2409,18.0
2410,15.0
2411,22.0
2412,3.0
2413,8.0
2414,26.0
2415,45.0
2416,40.0
2417,39.0
2418,47.0
2419,50.0
2420,53.0
2421,58.0
2422,71.0
2423,35.0
2424,22.0
2425,23.0
2426,33.0
2427,60.0
2428,71.0
2429,107.0
2430,49.0
2431,43.0
2432,68.0
2433,94.0
2434,36.0
2435,73.0
2436,98.0
2437,133.0
2438,137.0
2439,166.0
2440,198.0
2441,167.0
2442,153.0
2443,139.0
2444,163.0
2445,176.0
2446,191.0
2447,221.0
2448,175.0
2449,198.0
2450,248.0
2451,250.0
2452,289.0
2453,264.0
2454,245.0
2455,182.0
2456,186.0
2457,202.0
2458,338.0
2459,347.0
2460,348.0
2461,346.0
2462,350.0
2463,358.0
2464,356.0
2465,355.0
2466,351.0
2467,353.0
2468,351.0
2469,348.0
2470,355.0
2471,357.0
2472,360.0
2473,360.0
2474,349.0
2475,345.0
2476,324.0
2477,278.0
2478,245.0
2479,220.0
2480,216.0
2481,250.0
2482,261.0
2483,324.0
2484,347.0
2485,357.0
2486,360.0
2487,351.0
2488,342.0
2489,346.0
2490,348.0
2491,344.0
2492,339.0
2493,344.0
2494,333.0
2495,330.0
2496,336.0
2497,331.0
2498,291.0
2499,257.0
2500,229.0
2501,166.0
2502,137.0
2503,146.0
2504,133.0
2505,171.0
2506,195.0
2507,202.0
2508,228.0
2509,268.0
2510,268.0
2511,300.0
2512,335.0
2513,321.0
2514,298.0
2515,272.0
2516,295.0
2517,260.0
2518,245.0
2519,276.0
2520,294.0
2521,312.0
2522,312.0
2523,274.0
2524,245.0
2525,224.0
2526,218.0
2527,191.0
2528,154.0
2529,150.0
2530,154.0
2531,184.0
2532,174.0
2533,181.0
2534,206.0
2535,284.0
2536,292.0
2537,320.0
2538,332.0
2539,333.0
2540,341.0
2541,343.0
2542,350.0
2543,349.0
2544,339.0
2545,305.0
2546,252.0
2547,226.0
2548,217.0
2549,209.0
2550,169.0
2551,125.0
2552,125.0
2553,84.0
2554,74.0
2555,78.0
2556,122.0
2557,165.0
2558,230.0
2559,241.0
2560,195.0
2561,193.0
2562,186.0
2563,161.0
2564,118.0
2565,110.0
2566,133.0
2567,133.0
2568,132.0
2569,147.0
2570,151.0
2571,142.0
2572,171.0
2573,172.0
2574,168.0
2575,143.0
2576,141.0
2577,142.0
2578,186.0
2579,182.0
2580,195.0
2581,182.0
2582,169.0
2583,150.0
2584,141.0
2585,118.0
2586,120.0
2587,139.0
2588,151.0
2589,138.0
2590,112.0
2591,100.0
2592,105.0
2593,128.0
2594,162.0
2595,162.0
2596,172.0
2597,181.0
2598,179.0
2599,184.0
2600,188.0
2601,169.0
2602,152.0
2603,134.0
2604,132.0
2605,130.0
2606,136.0
2607,123.0
2608,125.0
2609,121.0
2610,87.0
2611,66.0
2612,52.0
2613,39.0
2614,26.0
2615,20.0
2616,27.0
2617,30.0
2618,24.0
2619,17.0
2620,22.0
2621,13.0
2622,18.0
2623,17.0
2624,18.0
2625,4.0
2626,4.0
2627,10.0
2628,13.0
2629,13.0
2630,13.0
2631,8.0
2632,13.0
2633,13.0
2634,13.0
2635,12.0
2636,12.0
2637,18.0
2638,7.0
2639,1.0
2640,0.0
2641,0.0
2642,0.0
2643,0.0
2644,0.0
2645,0.0
2646,0.0
2647,0.0
2648,0.0
2649,0.0
2650,0.0
2651,0.0
2652,0.0
2653,0.0
2654,0.0
2655,0.0
2656,0.0
2657,0.0
2658,2.0
2659,0.0
2660,1.0
2661,3.0
2662,13.0
2663,34.0
2664,35.0
2665,21.0
2666,24.0
2667,17.0
2668,13.0
2669,7.0
2670,16.0
2671,19.0
2672,31.0
2673,46.0
2674,47.0
2675,121.0
2676,182.0
2677,219.0
2678,329.0
2679,353.0
2680,353.0
2681,359.0
2682,362.0
2683,360.0
2684,360.0
2685,353.0
2686,274.0
2687,174.0
2688,287.0
2689,347.0
2690,354.0
2691,201.0
2692,330.0
2693,333.0
2694,349.0
2695,361.0
2696,364.0
2697,365.0
2698,335.0
2699,325.0
2700,286.0
2701,286.0
2702,288.0
2703,328.0
2704,328.0
2705,327.0
2706,329.0
2707,363.0
2708,357.0
2709,314.0
2710,255.0
2711,248.0
2712,246.0
2713,257.0
2714,260.0
2715,247.0
2716,248.0
2717,352.0
2718,355.0
2719,288.0
2720,301.0
2721,285.0
2722,249.0
2723,218.0
2724,149.0
2725,108.0
2726,115.0
2727,163.0
2728,202.0
2729,223.0
2730,219.0
2731,217.0
2732,261.0
2733,233.0
2734,208.0
2735,186.0
2736,202.0
2737,176.0
2738,200.0
2739,223.0
2740,176.0
2741,106.0
2742,195.0
2743,223.0
2744,139.0
2745,155.0
2746,52.0
2747,22.0
2748,59.0
2749,30.0
2750,2.0
2751,1.0
2752,3.0
2753,8.0
2754,52.0
2755,118.0
2756,178.0
2757,220.0
2758,233.0
2759,261.0
2760,280.0
2761,280.0
2762,298.0
2763,290.0
2764,296.0
2765,295.0
2766,276.0
2767,317.0
2768,325.0
2769,324.0
2770,119.0
2771,41.0
2772,82.0
2773,65.0
2774,11.0
2775,5.0
2776,55.0
2777,190.0
2778,246.0
2779,287.0
2780,268.0
2781,317.0
2782,331.0
2783,303.0
2784,311.0
2785,288.0
2786,236.0
2787,233.0
2788,178.0
2789,60.0
2790,80.0
2791,66.0
2792,38.0
2793,21.0
2794,10.0
2795,4.0
2796,2.0
2797,3.0
2798,3.0
2799,0.0
2800,2.0
2801,8.0
2802,28.0
2803,47.0
2804,15.0
2805,22.0
2806,3.0
2807,14.0
2808,36.0
2809,19.0
2810,25.0
2811,36.0
2812,41.0
2813,29.0
2814,30.0
2815,48.0
2816,19.0
2817,4.0
2818,3.0
2819,2.0
2820,1.0
2821,9.0
2822,27.0
2823,45.0
2824,82.0
2825,102.0
2826,139.0
2827,122.0
2828,91.0
2829,98.0
2830,108.0
2831,58.0
2832,43.0
2833,60.0
2834,71.0
2835,63.0
2836,82.0
2837,76.0
2838,76.0
2839,57.0
2840,62.0
2841,53.0
2842,51.0
2843,73.0
2844,104.0
2845,162.0
2846,189.0
2847,192.0
2848,303.0
2849,211.0
2850,65.0
2851,10.0
2852,3.0
2853,8.0
2854,2.0
2855,1.0
2856,1.0
2857,2.0
2858,2.0
2859,1.0
2860,0.0
2861,1.0
2862,2.0
2863,0.0
2864,0.0
2865,0.0
2866,0.0
2867,1.0
2868,2.0
2869,4.0
2870,19.0
2871,30.0
2872,34.0
2873,64.0
2874,150.0
2875,294.0
2876,301.0
2877,269.0
2878,240.0
2879,211.0
2880,188.0
2881,181.0
2882,211.0
2883,264.0
2884,282.0
2885,298.0
2886,299.0
2887,327.0
2888,310.0
2889,296.0
2890,318.0
2891,345.0
2892,334.0
2893,329.0
2894,303.0
2895,361.0
2896,366.0
2897,364.0
2898,362.0
2899,355.0
2900,354.0
2901,359.0
2902,367.0
2903,370.0
2904,372.0
2905,371.0
2906,371.0
2907,372.0
2908,370.0
2909,368.0
2910,365.0
2911,369.0
2912,329.0
2913,329.0
2914,329.0
2915,333.0
2916,318.0
2917,311.0
2918,309.0
2919,369.0
2920,372.0
2921,372.0
2922,360.0
2923,349.0
2924,365.0
2925,365.0
2926,369.0
2927,367.0
2928,363.0
2929,354.0
2930,342.0
2931,315.0
2932,287.0
2933,266.0
2934,238.0
2935,214.0
2936,241.0
2937,262.0
2938,325.0
2939,327.0
2940,268.0
2941,251.0
2942,268.0
2943,223.0
2944,330.0
2945,288.0
2946,346.0
2947,359.0
2948,351.0
2949,357.0
2950,366.0
2951,368.0
2952,360.0
2953,330.0
2954,343.0
2955,364.0
2956,348.0
2957,343.0
2958,345.0
2959,314.0
2960,215.0
2961,95.0
2962,101.0
2963,115.0
2964,103.0
2965,215.0
2966,197.0
2967,126.0
2968,62.0
2969,66.0
2970,254.0
2971,154.0
2972,67.0
2973,43.0
2974,38.0
2975,30.0
2976,33.0
2977,38.0
2978,49.0
2979,82.0
2980,75.0
2981,43.0
2982,19.0
2983,15.0
2984,24.0
2985,70.0
2986,77.0
2987,71.0
2988,74.0
2989,59.0
2990,34.0
2991,36.0
2992,51.0
2993,100.0
2994,188.0
2995,206.0
2996,270.0
2997,310.0
2998,283.0
2999,249.0
3000,275.0
3001,257.0
3002,224.0
3003,192.0
3004,194.0
3005,263.0
3006,287.0
3007,329.0
3008,334.0
3009,235.0
3010,246.0
3011,257.0
3012,222.0
3013,320.0
3014,328.0
3015,285.0
3016,300.0
3017,311.0
3018,254.0
3019,285.0
3020,348.0
3021,307.0
3022,317.0
3023,331.0
3024,321.0
3025,320.0
3026,308.0
3027,319.0
3028,337.0
3029,342.0
3030,333.0
3031,329.0
3032,294.0
3033,305.0
3034,272.0
3035,253.0
3036,219.0
3037,140.0
3038,60.0
3039,96.0
3040,68.0
3041,49.0
3042,36.0
3043,23.0
3044,10.0
3045,5.0
3046,2.0
3047,1.0
3048,6.0
3049,30.0
3050,50.0
3051,83.0
3052,110.0
3053,116.0
3054,101.0
3055,77.0
3056,61.0
3057,37.0
3058,30.0
3059,55.0
3060,50.0
3061,60.0
3062,99.0
3063,116.0
3064,84.0
3065,85.0
3066,172.0
3067,201.0
3068,177.0
3069,134.0
3070,37.0
3071,105.0
3072,246.0
3073,165.0
3074,117.0
3075,82.0
3076,64.0
3077,50.0
3078,40.0
3079,29.0
3080,35.0
3081,41.0
3082,56.0
3083,51.0
3084,26.0
3085,24.0
3086,4.0
3087,5.0
3088,6.0
3089,12.0
3090,32.0
3091,67.0
3092,85.0
3093,129.0
3094,51.0
3095,27.0
3096,51.0
3097,97.0
3098,112.0
3099,64.0
3100,19.0
3101,15.0
3102,12.0
3103,6.0
3104,8.0
3105,20.0
3106,22.0
3107,29.0
3108,30.0
3109,40.0
3110,48.0
3111,85.0
3112,70.0
3113,68.0
3114,112.0
3115,129.0
3116,123.0
3117,87.0
3118,84.0
3119,87.0
3120,89.0
3121,66.0
3122,50.0
3123,34.0
3124,31.0
3125,38.0
3126,22.0
3127,23.0
3128,19.0
3129,9.0
3130,2.0
3131,8.0
3132,25.0
3133,44.0
3134,55.0
3135,69.0
3136,70.0
3137,65.0
3138,61.0
3139,83.0
3140,82.0
3141,55.0
3142,55.0
3143,90.0
3144,153.0
3145,196.0
3146,200.0
3147,221.0
3148,216.0
3149,203.0
3150,179.0
3151,198.0
3152,194.0
3153,141.0
3154,130.0
3155,198.0
3156,227.0
3157,228.0
3158,113.0
3159,89.0
3160,94.0
3161,155.0
3162,203.0
3163,332.0
3164,231.0
3165,116.0
3166,94.0
3167,119.0
3168,131.0
3169,102.0
3170,71.0
3171,75.0
3172,85.0
3173,112.0
3174,90.0
3175,75.0
3176,42.0
3177,34.0
3178,55.0
3179,69.0
3180,109.0
3181,157.0
3182,164.0
3183,104.0
3184,72.0
3185,112.0
3186,131.0
3187,130.0
3188,101.0
3189,48.0
3190,37.0
3191,40.0
3192,43.0
3193,30.0
3194,28.0
3195,26.0
3196,14.0
3197,6.0
3198,1.0
3199,0.0
3200,0.0
3201,5.0
3202,3.0
3203,0.0
3204,0.0
3205,1.0
3206,1.0
3207,0.0
3208,0.0
3209,0.0
3210,1.0
3211,1.0
3212,0.0
3213,0.0
3214,0.0
3215,0.0
3216,0.0
3217,0.0
3218,2.0
3219,14.0
3220,28.0
3221,52.0
3222,52.0
3223,40.0
3224,34.0
3225,35.0
3226,24.0
3227,33.0
3228,94.0
3229,100.0
3230,58.0
3231,52.0
3232,72.0
3233,87.0
3234,50.0
3235,34.0
3236,40.0
3237,60.0
3238,52.0
3239,53.0
3240,68.0
3241,80.0
3242,87.0
3243,140.0
3244,153.0
3245,161.0
3246,158.0
3247,133.0
3248,146.0
3249,178.0
3250,228.0
3251,235.0
3252,331.0
3253,360.0
3254,364.0
3255,345.0
3256,334.0
3257,360.0
3258,360.0
3259,361.0
3260,362.0
3261,371.0
3262,371.0
3263,371.0
3264,373.0
3265,372.0
3266,368.0
3267,323.0
3268,263.0
3269,251.0
3270,183.0
3271,102.0
3272,78.0
3273,69.0
3274,58.0
3275,64.0
3276,89.0
3277,66.0
3278,67.0
3279,32.0
3280,32.0
3281,49.0
3282,113.0
3283,128.0
3284,91.0
3285,119.0
3286,77.0
3287,66.0
3288,45.0
3289,37.0
3290,42.0
3291,42.0
3292,60.0
3293,76.0
3294,133.0
3295,86.0
3296,110.0
3297,112.0
3298,99.0
3299,112.0
3300,126.0
3301,201.0
3302,240.0
3303,254.0
3304,270.0
3305,268.0
3306,327.0
3307,312.0
3308,217.0
3309,164.0
3310,137.0
3311,167.0
3312,190.0
3313,183.0
3314,158.0
3315,196.0
3316,236.0
3317,233.0
3318,200.0
3319,183.0
3320,166.0
3321,147.0
3322,147.0
3323,171.0
3324,194.0
3325,221.0
3326,222.0
3327,217.0
3328,260.0
3329,276.0
3330,283.0
3331,244.0
3332,187.0
3333,139.0
3334,137.0
3335,169.0
3336,92.0
3337,71.0
3338,56.0
3339,60.0
3340,53.0
3341,61.0
3342,69.0
3343,68.0
3344,54.0
3345,38.0
3346,37.0
3347,30.0
3348,23.0
3349,27.0
3350,29.0
3351,23.0
3352,17.0
3353,26.0
3354,26.0
3355,38.0
3356,44.0
3357,89.0
3358,104.0
3359,54.0
3360,148.0
3361,261.0
3362,182.0
3363,121.0
3364,38.0
3365,44.0
3366,45.0
3367,19.0
3368,7.0
3369,3.0
3370,5.0
3371,6.0
3372,2.0
3373,0.0
3374,0.0
3375,0.0
3376,1.0
3377,8.0
3378,2.0
3379,2.0
3380,4.0
3381,10.0
3382,11.0
3383,31.0
3384,122.0
3385,148.0
3386,143.0
3387,150.0
3388,208.0
3389,219.0
3390,240.0
3391,290.0
3392,288.0
3393,314.0
3394,321.0
3395,315.0
3396,307.0
3397,326.0
3398,321.0
3399,318.0
3400,331.0
3401,331.0
3402,255.0
3403,181.0
3404,281.0
3405,328.0
3406,293.0
3407,226.0
3408,178.0
3409,148.0
3410,103.0
3411,55.0
3412,45.0
3413,48.0
3414,50.0
3415,76.0
3416,93.0
3417,61.0
3418,31.0
3419,17.0
3420,3.0
3421,10.0
3422,20.0
3423,33.0
3424,42.0
3425,51.0
3426,50.0
3427,60.0
3428,29.0
3429,30.0
3430,90.0
3431,162.0
3432,234.0
3433,269.0
3434,121.0
3435,153.0
3436,191.0
3437,91.0
3438,40.0
3439,28.0
3440,26.0
3441,28.0
3442,42.0
3443,115.0
3444,227.0
3445,191.0
3446,123.0
3447,155.0
3448,259.0
3449,245.0
3450,307.0
3451,251.0
3452,227.0
3453,222.0
3454,207.0
3455,195.0
3456,195.0
3457,176.0
3458,150.0
3459,136.0
3460,136.0
3461,143.0
3462,127.0
3463,110.0
3464,133.0
3465,122.0
3466,144.0
3467,153.0
3468,174.0
3469,196.0
3470,202.0
3471,231.0
3472,225.0
3473,254.0
3474,296.0
3475,268.0
3476,207.0
3477,207.0
3478,213.0
3479,247.0
3480,280.0
3481,285.0
3482,289.0
3483,236.0
3484,154.0
3485,152.0
3486,171.0
3487,279.0
3488,277.0
3489,298.0
3490,307.0
3491,266.0
3492,294.0
3493,300.0
3494,301.0
3495,223.0
3496,154.0
3497,146.0
3498,62.0
3499,56.0
3500,76.0
3501,262.0
3502,248.0
3503,249.0
3504,276.0
3505,315.0
3506,334.0
3507,287.0
3508,295.0
3509,319.0
3510,233.0
3511,157.0
3512,290.0
3513,262.0
3514,215.0
3515,245.0
3516,189.0
3517,207.0
3518,210.0
3519,102.0
3520,91.0
3521,122.0
3522,146.0
3523,139.0
3524,89.0
3525,93.0
3526,76.0
3527,87.0
3528,68.0
3529,62.0
3530,63.0
3531,73.0
3532,91.0
3533,97.0
3534,81.0
3535,95.0
3536,93.0
3537,82.0
3538,38.0
3539,27.0
3540,26.0
3541,49.0
3542,63.0
3543,60.0
3544,85.0
3545,83.0
3546,92.0
3547,129.0
3548,171.0
3549,166.0
3550,187.0
3551,204.0
3552,199.0
3553,169.0
3554,153.0
3555,142.0
3556,159.0
3557,113.0
3558,81.0
3559,79.0
3560,79.0
3561,55.0
3562,57.0
3563,68.0
3564,89.0
3565,77.0
3566,48.0
3567,20.0
3568,7.0
3569,1.0
3570,0.0
3571,2.0
3572,3.0
3573,5.0
3574,10.0
3575,26.0
3576,72.0
3577,125.0
3578,139.0
3579,143.0
3580,170.0
3581,232.0
3582,260.0
3583,284.0
3584,309.0
3585,301.0
3586,283.0
3587,321.0
3588,337.0
3589,337.0
3590,333.0
3591,359.0
3592,339.0
3593,351.0
3594,348.0
3595,302.0
3596,271.0
3597,211.0
3598,205.0
3599,187.0
3600,177.0
3601,198.0
3602,194.0
3603,236.0
3604,257.0
3605,266.0
3606,202.0
3607,193.0
3608,204.0
3609,219.0
3610,194.0
3611,106.0
3612,54.0
3613,40.0
3614,32.0
3615,55.0
3616,52.0
3617,30.0
3618,32.0
3619,19.0
3620,29.0
3621,34.0
3622,18.0
3623,23.0
3624,49.0
3625,90.0
3626,63.0
3627,128.0
3628,60.0
3629,58.0
3630,127.0
3631,168.0
3632,170.0
3633,129.0
3634,165.0
3635,129.0
3636,105.0
3637,123.0
3638,100.0
3639,193.0
3640,303.0
3641,258.0
3642,237.0
3643,184.0
3644,75.0
3645,31.0
3646,18.0
3647,17.0
3648,10.0
3649,3.0
3650,5.0
3651,2.0
3652,1.0
3653,0.0
3654,0.0
3655,1.0
3656,1.0
3657,2.0
3658,5.0
3659,14.0
3660,13.0
3661,30.0
3662,81.0
3663,150.0
3664,190.0
3665,194.0
3666,181.0
3667,212.0
3668,262.0
3669,285.0
3670,244.0
3671,254.0
3672,211.0
3673,247.0
3674,318.0
3675,332.0
3676,331.0
3677,302.0
3678,90.0
3679,20.0
3680,54.0
3681,65.0
3682,149.0
3683,9.0
3684,55.0
3685,114.0
3686,7.0
3687,12.0
3688,247.0
3689,203.0
3690,85.0
3691,43.0
3692,64.0
3693,22.0
3694,20.0
3695,1.0
3696,2.0
3697,1.0
3698,2.0
3699,0.0
3700,0.0
3701,0.0
3702,0.0
3703,0.0
3704,0.0
3705,0.0
3706,0.0
3707,0.0
3708,0.0
3709,1.0
3710,2.0
3711,10.0
3712,35.0
3713,77.0
3714,121.0
3715,139.0
3716,158.0
3717,203.0
3718,209.0
3719,149.0
3720,225.0
3721,211.0
3722,182.0
3723,209.0
3724,232.0
3725,242.0
3726,291.0
3727,304.0
3728,98.0
3729,52.0
3730,29.0
3731,4.0
3732,3.0
3733,2.0
3734,1.0
3735,0.0
3736,18.0
3737,41.0
3738,43.0
3739,47.0
3740,141.0
3741,269.0
3742,224.0
3743,247.0
3744,240.0
3745,293.0
3746,324.0
3747,204.0
3748,149.0
3749,170.0
3750,283.0
3751,195.0
3752,193.0
3753,176.0
3754,132.0
3755,64.0
3756,42.0
3757,15.0
3758,149.0
3759,310.0
3760,279.0
3761,360.0
3762,342.0
3763,335.0
3764,268.0
3765,216.0
3766,232.0
3767,203.0
3768,212.0
3769,161.0
3770,145.0
3771,142.0
3772,142.0
3773,94.0
3774,40.0
3775,11.0
3776,11.0
3777,14.0
3778,2.0
3779,0.0
3780,0.0
3781,0.0
3782,0.0
3783,0.0
3784,0.0
3785,1.0
3786,8.0
3787,51.0
3788,88.0
3789,120.0
3790,171.0
3791,202.0
3792,187.0
3793,212.0
3794,173.0
3795,14.0
3796,28.0
3797,90.0
3798,128.0
3799,235.0
3800,325.0
3801,326.0
3802,324.0
3803,333.0
3804,299.0
3805,303.0
3806,304.0
3807,319.0
3808,344.0
3809,201.0
3810,246.0
3811,250.0
3812,289.0
3813,251.0
3814,215.0
3815,176.0
3816,198.0
3817,290.0
3818,328.0
3819,356.0
3820,353.0
3821,336.0
3822,342.0
3823,346.0
3824,301.0
3825,215.0
3826,144.0
3827,100.0
3828,71.0
3829,43.0
3830,32.0
3831,7.0
3832,2.0
3833,2.0
3834,1.0
3835,2.0
3836,1.0
3837,18.0
3838,38.0
3839,38.0
3840,43.0
3841,68.0
3842,109.0
3843,191.0
3844,226.0
3845,273.0
3846,325.0
3847,331.0
3848,327.0
3849,331.0
3850,298.0
3851,188.0
3852,175.0
3853,160.0
3854,207.0
3855,333.0
3856,350.0
3857,341.0
3858,348.0
3859,347.0
3860,289.0
3861,322.0
3862,338.0
3863,324.0
3864,285.0
3865,271.0
3866,278.0
3867,285.0
3868,260.0
3869,205.0
3870,199.0
3871,226.0
3872,167.0
3873,117.0
3874,82.0
3875,40.0
3876,53.0
3877,20.0
3878,4.0
3879,5.0
3880,10.0
3881,4.0
3882,2.0
3883,3.0
3884,3.0
3885,25.0
3886,90.0
3887,261.0
3888,171.0
3889,133.0
3890,109.0
3891,71.0
3892,17.0
3893,182.0
3894,93.0
3895,93.0
3896,73.0
3897,249.0
3898,293.0
3899,260.0
3900,239.0
3901,198.0
3902,200.0
3903,226.0
3904,192.0
3905,180.0
3906,120.0
3907,12.0
3908,8.0
3909,25.0
3910,28.0
3911,15.0
3912,38.0
3913,108.0
3914,102.0
3915,65.0
3916,46.0
3917,78.0
3918,55.0
3919,53.0
3920,74.0
3921,87.0
3922,99.0
3923,63.0
3924,45.0
3925,38.0
3926,21.0
3927,18.0
3928,28.0
3929,21.0
3930,33.0
3931,18.0
3932,9.0
3933,12.0
3934,5.0
3935,2.0
3936,80.0
3937,212.0
3938,132.0
3939,100.0
3940,77.0
3941,45.0
3942,50.0
3943,40.0
3944,37.0
3945,22.0
3946,45.0
3947,38.0
3948,28.0
3949,42.0
3950,66.0
3951,69.0
3952,154.0
3953,179.0
3954,244.0
3955,255.0
3956,87.0
3957,121.0
3958,122.0
3959,96.0
3960,84.0
3961,67.0
3962,67.0
3963,116.0
3964,127.0
3965,189.0
3966,271.0
3967,286.0
3968,213.0
3969,96.0
3970,161.0
3971,137.0
3972,333.0
3973,365.0
3974,369.0
3975,371.0
3976,260.0
3977,237.0
3978,164.0
3979,32.0
3980,1.0
3981,2.0
3982,11.0
3983,148.0
3984,269.0
3985,274.0
3986,246.0
3987,247.0
3988,255.0
3989,231.0
3990,197.0
3991,128.0
3992,78.0
3993,77.0
3994,67.0
3995,40.0
3996,32.0
3997,30.0
3998,16.0
3999,13.0
4000,4.0
4001,3.0
4002,3.0
4003,2.0
4004,1.0
4005,0.0
4006,0.0
4007,7.0
4008,45.0
4009,21.0
4010,28.0
4011,25.0
4012,19.0
4013,7.0
4014,0.0
4015,0.0
4016,0.0
4017,6.0
4018,6.0
4019,8.0
4020,6.0
4021,4.0
4022,4.0
4023,4.0
4024,2.0
4025,0.0
4026,1.0
4027,5.0
4028,9.0
4029,16.0
4030,37.0
4031,105.0
4032,155.0
4033,171.0
4034,178.0
4035,183.0
4036,178.0
4037,188.0
4038,189.0
4039,123.0
4040,96.0
4041,60.0
4042,50.0
4043,44.0
4044,30.0
4045,27.0
4046,30.0
4047,31.0
4048,26.0
4049,26.0
4050,27.0
4051,31.0
4052,50.0
4053,46.0
4054,52.0
4055,27.0
4056,28.0
4057,29.0
4058,27.0
4059,34.0
4060,34.0
4061,22.0
4062,22.0
4063,22.0
4064,17.0
4065,19.0
4066,16.0
4067,16.0
4068,38.0
4069,56.0
4070,74.0
4071,64.0
4072,101.0
4073,98.0
4074,120.0
4075,135.0
4076,113.0
4077,65.0
4078,20.0
4079,13.0
4080,7.0
4081,2.0
4082,34.0
4083,10.0
4084,33.0
4085,30.0
4086,83.0
4087,39.0
4088,17.0
4089,23.0
4090,29.0
4091,14.0
4092,9.0
4093,17.0
4094,48.0
4095,70.0
4096,140.0
4097,107.0
4098,56.0
4099,25.0
4100,9.0
4101,7.0
4102,3.0
4103,3.0
4104,7.0
4105,3.0
4106,2.0
4107,7.0
4108,15.0
4109,30.0
4110,21.0
4111,14.0
4112,19.0
4113,15.0
4114,12.0
4115,2.0
4116,1.0
4117,3.0
4118,5.0
4119,4.0
4120,9.0
4121,18.0
4122,47.0
4123,101.0
4124,94.0
4125,54.0
4126,77.0
4127,90.0
4128,46.0
4129,38.0
4130,45.0
4131,45.0
4132,37.0
4133,30.0
4134,30.0
4135,23.0
4136,9.0
4137,2.0
4138,1.0
4139,0.0
4140,0.0
4141,0.0
4142,0.0
4143,0.0
4144,0.0
4145,0.0
4146,0.0
4147,0.0
4148,0.0
4149,0.0
4150,2.0
4151,7.0
4152,12.0
4153,19.0
4154,24.0
4155,30.0
4156,40.0
4157,43.0
4158,53.0
4159,70.0
4160,64.0
4161,48.0
4162,47.0
4163,46.0
4164,45.0
4165,42.0
4166,44.0
4167,57.0
4168,59.0
4169,72.0
4170,73.0
4171,54.0
4172,58.0
4173,72.0
4174,68.0
4175,47.0
4176,42.0
4177,30.0
4178,26.0
4179,30.0
4180,40.0
4181,48.0
4182,40.0
4183,42.0
4184,48.0
4185,51.0
4186,61.0
4187,62.0
4188,43.0
4189,61.0
4190,86.0
4191,122.0
4192,168.0
4193,204.0
4194,262.0
4195,257.0
4196,203.0
4197,197.0
4198,206.0
4199,198.0
4200,195.0
4201,138.0
4202,91.0
4203,73.0
4204,86.0
4205,81.0
4206,56.0
4207,27.0
4208,21.0
4209,25.0
4210,21.0
4211,26.0
4212,41.0
4213,40.0
4214,60.0
4215,55.0
4216,48.0
4217,53.0
4218,50.0
4219,57.0
4220,84.0
4221,124.0
4222,169.0
4223,178.0
4224,173.0
4225,126.0
4226,83.0
4227,45.0
4228,34.0
4229,40.0
4230,30.0
4231,30.0
4232,19.0
4233,33.0
4234,56.0
4235,122.0
4236,173.0
4237,243.0
4238,277.0
4239,259.0
4240,276.0
4241,283.0
4242,289.0
4243,287.0
4244,292.0
4245,291.0
4246,290.0
4247,290.0
4248,290.0
4249,291.0
4250,329.0
4251,307.0
4252,298.0
4253,294.0
4254,288.0
4255,310.0
4256,293.0
4257,276.0
4258,271.0
4259,281.0
4260,283.0
4261,278.0
4262,262.0
4263,242.0
4264,205.0
4265,208.0
4266,204.0
4267,213.0
4268,164.0
4269,169.0
4270,180.0
4271,183.0
4272,157.0
4273,144.0
4274,105.0
4275,81.0
4276,72.0
4277,77.0
4278,67.0
4279,44.0
4280,40.0
4281,43.0
4282,51.0
4283,59.0
4284,42.0
4285,46.0
4286,30.0
4287,21.0
4288,13.0
4289,8.0
4290,8.0
4291,3.0
4292,2.0
4293,3.0
4294,7.0
4295,14.0
4296,33.0
4297,25.0
4298,13.0
4299,10.0
4300,31.0
4301,43.0
4302,49.0
4303,58.0
4304,55.0
4305,49.0
4306,26.0
4307,26.0
4308,31.0
4309,46.0
4310,30.0
4311,35.0
4312,33.0
4313,16.0
4314,6.0
4315,2.0
4316,2.0
4317,1.0
4318,3.0
4319,3.0
4320,3.0
4321,27.0
4322,36.0
4323,38.0
4324,57.0
4325,93.0
4326,73.0
4327,109.0
4328,156.0
4329,186.0
4330,275.0
4331,292.0
4332,292.0
4333,319.0
4334,305.0
4335,283.0
4336,355.0
4337,361.0
4338,331.0
4339,258.0
4340,220.0
4341,268.0
4342,272.0
4343,184.0
4344,231.0
4345,252.0
4346,223.0
4347,166.0
4348,123.0
4349,140.0
4350,226.0
4351,211.0
4352,243.0
4353,215.0
4354,170.0
4355,86.0
4356,41.0
4357,70.0
4358,191.0
4359,213.0
4360,214.0
4361,229.0
4362,286.0
4363,342.0
4364,354.0
4365,360.0
4366,356.0
4367,336.0
4368,353.0
4369,361.0
4370,359.0
4371,363.0
4372,362.0
4373,360.0
4374,359.0
4375,359.0
4376,329.0
4377,351.0
4378,343.0
4379,326.0
4380,223.0
4381,247.0
4382,251.0
4383,325.0
4384,344.0
4385,350.0
4386,350.0
4387,349.0
4388,350.0
4389,349.0
4390,356.0
4391,337.0
4392,277.0
4393,177.0
4394,140.0
4395,203.0
4396,233.0
4397,243.0
4398,258.0
4399,169.0
4400,104.0
4401,114.0
4402,103.0
4403,199.0
4404,199.0
4405,159.0
4406,185.0
4407,193.0
4408,119.0
4409,122.0
4410,135.0
4411,185.0
4412,302.0
4413,317.0
4414,321.0
4415,236.0
4416,261.0
4417,215.0
4418,185.0
4419,175.0
4420,206.0
4421,239.0
4422,260.0
4423,275.0
4424,296.0
4425,337.0
4426,362.0
4427,367.0
4428,363.0
4429,362.0
4430,347.0
4431,344.0
4432,359.0
4433,365.0
4434,369.0
4435,365.0
4436,285.0
4437,365.0
4438,366.0
4439,365.0
4440,362.0
4441,346.0
4442,345.0
4443,327.0
4444,322.0
4445,306.0
4446,305.0
4447,292.0
4448,257.0
4449,207.0
4450,129.0
4451,100.0
4452,97.0
4453,86.0
4454,81.0
4455,121.0
4456,166.0
4457,194.0
4458,215.0
4459,214.0
4460,210.0
4461,190.0
4462,178.0
4463,137.0
4464,120.0
4465,121.0
4466,87.0
4467,73.0
4468,56.0
4469,58.0
4470,24.0
4471,23.0
4472,99.0
4473,101.0
4474,103.0
4475,160.0
4476,295.0
4477,345.0
4478,338.0
4479,286.0
4480,329.0
4481,359.0
4482,358.0
4483,354.0
4484,362.0
4485,373.0
4486,372.0
4487,370.0
4488,367.0
4489,363.0
4490,367.0
4491,365.0
4492,364.0
4493,360.0
4494,353.0
4495,356.0
4496,358.0
4497,345.0
4498,329.0
4499,331.0
4500,330.0
4501,304.0
4502,315.0
4503,295.0
4504,282.0
4505,291.0
4506,322.0
4507,332.0
4508,293.0
4509,277.0
4510,249.0
4511,247.0
4512,249.0
4513,234.0
4514,240.0
4515,236.0
4516,216.0
4517,241.0
4518,240.0
4519,265.0
4520,241.0
4521,213.0
4522,221.0
4523,229.0
4524,244.0
4525,138.0
4526,105.0
4527,143.0
4528,169.0
4529,185.0
4530,217.0
4531,239.0
4532,232.0
4533,192.0
4534,156.0
4535,145.0
4536,178.0
4537,145.0
4538,151.0
4539,182.0
4540,189.0
4541,206.0
4542,139.0
4543,126.0
4544,173.0
4545,148.0
4546,153.0
4547,164.0
4548,110.0
4549,151.0
4550,161.0
4551,137.0
4552,127.0
4553,185.0
4554,211.0
4555,224.0
4556,273.0
4557,303.0
4558,334.0
4559,323.0
4560,241.0
4561,185.0
4562,130.0
4563,58.0
4564,32.0
4565,37.0
4566,64.0
4567,51.0
4568,42.0
4569,43.0
4570,48.0
4571,89.0
4572,140.0
4573,146.0
4574,159.0
4575,142.0
4576,141.0
4577,140.0
4578,127.0
4579,137.0
4580,177.0
4581,172.0
4582,142.0
4583,130.0
4584,72.0
4585,53.0
4586,37.0
4587,23.0
4588,13.0
4589,2.0
4590,1.0
4591,0.0
4592,0.0
4593,0.0
4594,0.0
4595,0.0
4596,0.0
4597,0.0
4598,1.0
4599,1.0
4600,2.0
4601,3.0
4602,2.0
4603,2.0
4604,2.0
4605,0.0
4606,0.0
4607,0.0
4608,0.0
4609,0.0
4610,0.0
4611,0.0
4612,0.0
4613,1.0
4614,0.0
4615,1.0
4616,0.0
4617,1.0
4618,2.0
4619,2.0
4620,6.0
4621,4.0
4622,9.0
4623,15.0
4624,23.0
4625,18.0
4626,2.0
4627,0.0
4628,0.0
4629,16.0
4630,22.0
4631,27.0
4632,22.0
4633,9.0
4634,1.0
4635,0.0
4636,0.0
4637,1.0
4638,0.0
4639,0.0
4640,0.0
4641,0.0
4642,0.0
4643,1.0
4644,19.0
4645,34.0
4646,41.0
4647,100.0
4648,87.0
4649,106.0
4650,118.0
4651,127.0
4652,126.0
4653,157.0
4654,164.0
4655,205.0
4656,206.0
4657,196.0
4658,135.0
4659,60.0
4660,33.0
4661,27.0
4662,15.0
4663,10.0
4664,2.0
4665,0.0
4666,3.0
4667,3.0
4668,10.0
4669,20.0
4670,34.0
4671,40.0
4672,29.0
4673,36.0
4674,50.0
4675,65.0
4676,51.0
4677,34.0
4678,34.0
4679,41.0
4680,60.0
4681,56.0
4682,73.0
4683,56.0
4684,63.0
4685,83.0
4686,74.0
4687,76.0
4688,62.0
4689,93.0
4690,112.0
4691,128.0
4692,132.0
4693,136.0
4694,166.0
4695,177.0
4696,194.0
4697,197.0
4698,197.0
4699,188.0
4700,164.0
4701,114.0
4702,151.0
4703,161.0
4704,256.0
4705,286.0
4706,234.0
4707,173.0
4708,131.0
4709,150.0
4710,69.0
4711,77.0
4712,91.0
4713,132.0
4714,116.0
4715,152.0
4716,100.0
4717,99.0
4718,89.0
4719,83.0
4720,78.0
4721,60.0
4722,73.0
4723,124.0
4724,56.0
4725,77.0
4726,154.0
4727,170.0
4728,141.0
4729,136.0
4730,89.0
4731,77.0
4732,62.0
4733,50.0
4734,41.0
4735,23.0
4736,9.0
4737,4.0
4738,1.0
4739,9.0
4740,28.0
4741,32.0
4742,34.0
4743,30.0
4744,25.0
4745,17.0
4746,5.0
4747,1.0
4748,0.0
4749,0.0
4750,0.0
4751,0.0
4752,0.0
4753,0.0
4754,0.0
4755,0.0
4756,0.0
4757,0.0
4758,0.0
4759,0.0
4760,0.0
4761,0.0
4762,0.0
4763,0.0
4764,1.0
4765,2.0
4766,3.0
4767,18.0
4768,41.0
4769,61.0
4770,67.0
4771,92.0
4772,93.0
4773,117.0
4774,151.0
4775,176.0
4776,213.0
4777,201.0
4778,181.0
4779,160.0
4780,126.0
4781,102.0
4782,70.0
4783,33.0
4784,22.0
4785,37.0
4786,38.0
4787,75.0
4788,80.0
4789,46.0
4790,36.0
4791,17.0
4792,16.0
4793,13.0
4794,11.0
4795,9.0
4796,8.0
4797,6.0
4798,7.0
4799,6.0
4800,0.0
4801,0.0
4802,0.0
4803,0.0
4804,0.0
4805,0.0
4806,3.0
4807,12.0
4808,28.0
4809,40.0
4810,49.0
4811,53.0
4812,51.0
4813,58.0
4814,76.0
4815,71.0
4816,85.0
4817,55.0
4818,47.0
4819,183.0
4820,17.0
4821,42.0
4822,84.0
4823,136.0
4824,124.0
4825,167.0
4826,95.0
4827,80.0
4828,75.0
4829,119.0
4830,105.0
4831,104.0
4832,58.0
4833,83.0
4834,75.0
4835,118.0
4836,168.0
4837,218.0
4838,296.0
4839,351.0
4840,362.0
4841,355.0
4842,335.0
4843,294.0
4844,263.0
4845,187.0
4846,167.0
4847,156.0
4848,102.0
4849,78.0
4850,58.0
4851,67.0
4852,61.0
4853,48.0
4854,38.0
4855,32.0
4856,47.0
4857,37.0
4858,31.0
4859,38.0
4860,54.0
4861,53.0
4862,37.0
4863,38.0
4864,46.0
4865,48.0
4866,68.0
4867,71.0
4868,96.0
4869,70.0
4870,66.0
4871,86.0
4872,110.0
4873,81.0
4874,63.0
4875,36.0
4876,24.0
4877,22.0
4878,32.0
4879,61.0
4880,58.0
4881,48.0
4882,37.0
4883,29.0
4884,27.0
4885,34.0
4886,51.0
4887,60.0
4888,41.0
4889,26.0
4890,31.0
4891,32.0
4892,30.0
4893,28.0
4894,13.0
4895,2.0
4896,1.0
4897,11.0
4898,10.0
4899,6.0
4900,4.0
4901,1.0
4902,0.0
4903,0.0
4904,0.0
4905,0.0
4906,0.0
4907,0.0
4908,0.0
4909,0.0
4910,5.0
4911,15.0
4912,43.0
4913,81.0
4914,122.0
4915,129.0
4916,154.0
4917,158.0
4918,166.0
4919,96.0
4920,83.0
4921,71.0
4922,58.0
4923,62.0
4924,53.0
4925,80.0
4926,94.0
4927,72.0
4928,80.0
4929,73.0
4930,74.0
4931,63.0
4932,72.0
4933,101.0
4934,148.0
4935,179.0
4936,184.0
4937,181.0
4938,184.0
4939,172.0
4940,140.0
4941,118.0
4942,89.0
4943,79.0
4944,32.0
4945,22.0
4946,23.0
4947,25.0
4948,17.0
4949,15.0
4950,44.0
4951,58.0
4952,49.0
4953,55.0
4954,61.0
4955,53.0
4956,77.0
4957,106.0
4958,160.0
4959,238.0
4960,194.0
4961,130.0
4962,59.0
4963,132.0
4964,125.0
4965,162.0
4966,194.0
4967,271.0
4968,196.0
4969,321.0
4970,317.0
4971,254.0
4972,235.0
4973,217.0
4974,232.0
4975,255.0
4976,281.0
4977,270.0
4978,284.0
4979,310.0
4980,345.0
4981,341.0
4982,322.0
4983,354.0
4984,339.0
4985,344.0
4986,347.0
4987,212.0
4988,211.0
4989,222.0
4990,239.0
4991,243.0
4992,246.0
4993,251.0
4994,224.0
4995,215.0
4996,177.0
4997,187.0
4998,180.0
4999,203.0
5000,249.0
5001,242.0
5002,243.0
5003,282.0
5004,261.0
5005,282.0
5006,275.0
5007,272.0
5008,261.0
5009,200.0
5010,182.0
5011,198.0
5012,173.0
5013,152.0
5014,121.0
5015,97.0
5016,91.0
5017,70.0
5018,53.0
5019,56.0
5020,55.0
5021,56.0
5022,54.0
5023,60.0
5024,39.0
5025,32.0
5026,25.0
5027,23.0
5028,17.0
5029,23.0
5030,25.0
5031,30.0
5032,19.0
5033,4.0
5034,1.0
5035,0.0
5036,2.0
5037,5.0
5038,4.0
5039,2.0
5040,0.0
5041,4.0
5042,5.0
5043,1.0
5044,0.0
5045,2.0
5046,9.0
5047,17.0
5048,5.0
5049,4.0
5050,1.0
5051,3.0
5052,8.0
5053,12.0
5054,24.0
5055,25.0
5056,14.0
5057,10.0
5058,13.0
5059,18.0
5060,36.0
5061,12.0
5062,32.0
5063,200.0
5064,171.0
5065,100.0
5066,77.0
5067,98.0
5068,79.0
5069,45.0
5070,17.0
5071,5.0
5072,9.0
5073,18.0
5074,47.0
5075,71.0
5076,50.0
5077,25.0
5078,20.0
5079,14.0
5080,18.0
5081,11.0
5082,58.0
5083,121.0
5084,77.0
5085,33.0
5086,11.0
5087,48.0
5088,29.0
5089,28.0
5090,5.0
5091,3.0
5092,2.0
5093,1.0
5094,1.0
5095,0.0
5096,4.0
5097,5.0
5098,5.0
5099,2.0
5100,0.0
5101,0.0
5102,0.0
5103,1.0
5104,1.0
5105,1.0
5106,2.0
5107,4.0
5108,3.0
5109,1.0
5110,4.0
5111,1.0
5112,0.0
5113,0.0
5114,0.0
5115,6.0
5116,14.0
5117,16.0
5118,19.0
5119,15.0
5120,10.0
5121,5.0
5122,2.0
5123,3.0
5124,2.0
5125,2.0
5126,1.0
5127,0.0
5128,0.0
5129,0.0
5130,0.0
5131,1.0
5132,1.0
5133,0.0
5134,0.0
5135,0.0
5136,0.0
5137,0.0
5138,1.0
5139,2.0
5140,3.0
5141,4.0
5142,4.0
5143,4.0
5144,2.0
5145,0.0
5146,0.0
5147,0.0
5148,0.0
5149,1.0
5150,9.0
5151,11.0
5152,11.0
5153,7.0
5154,2.0
5155,1.0
5156,1.0
5157,0.0
5158,8.0
5159,16.0
5160,71.0
5161,65.0
5162,63.0
5163,89.0
5164,74.0
5165,48.0
5166,34.0
5167,31.0
5168,30.0
5169,29.0
5170,39.0
5171,48.0
5172,51.0
5173,27.0
5174,18.0
5175,19.0
5176,23.0
5177,17.0
5178,21.0
5179,8.0
5180,2.0
5181,2.0
5182,14.0
5183,21.0
5184,4.0
5185,1.0
5186,0.0
5187,1.0
5188,1.0
5189,1.0
5190,1.0
5191,0.0
5192,0.0
5193,0.0
5194,0.0
5195,0.0
5196,3.0
5197,3.0
5198,1.0
5199,1.0
5200,1.0
5201,2.0
5202,3.0
5203,10.0
5204,6.0
5205,3.0
5206,1.0
5207,1.0
5208,1.0
5209,6.0
5210,62.0
5211,82.0
5212,53.0
5213,45.0
5214,71.0
5215,98.0
5216,107.0
5217,82.0
5218,78.0
5219,80.0
5220,58.0
5221,29.0
5222,7.0
5223,6.0
5224,5.0
5225,2.0
5226,2.0
5227,3.0
5228,6.0
5229,6.0
5230,11.0
5231,34.0
5232,26.0
5233,27.0
5234,14.0
5235,5.0
5236,4.0
5237,2.0
5238,0.0
5239,0.0
5240,3.0
5241,6.0
5242,14.0
5243,16.0
5244,49.0
5245,57.0
5246,16.0
5247,11.0
5248,6.0
5249,12.0
5250,34.0
5251,40.0
5252,50.0
5253,69.0
5254,67.0
5255,81.0
5256,91.0
5257,111.0
5258,85.0
5259,85.0
5260,73.0
5261,70.0
5262,128.0
5263,164.0
5264,151.0
5265,207.0
5266,186.0
5267,182.0
5268,192.0
5269,210.0
5270,197.0
5271,175.0
5272,192.0
5273,270.0
5274,313.0
5275,314.0
5276,310.0
5277,332.0
5278,320.0
5279,306.0
5280,298.0
5281,272.0
5282,255.0
5283,236.0
5284,167.0
5285,169.0
5286,121.0
5287,81.0
5288,70.0
5289,26.0
5290,7.0
5291,2.0
5292,0.0
5293,0.0
5294,0.0
5295,1.0
5296,2.0
5297,14.0
5298,36.0
5299,76.0
5300,119.0
5301,158.0
5302,254.0
5303,326.0
5304,321.0
5305,360.0
5306,377.0
5307,366.0
5308,343.0
5309,274.0
5310,250.0
5311,202.0
5312,134.0
5313,107.0
5314,148.0
5315,212.0
5316,268.0
5317,294.0
5318,266.0
5319,260.0
5320,256.0
5321,218.0
5322,78.0
5323,110.0
5324,248.0
5325,334.0
5326,341.0
5327,298.0
5328,348.0
5329,360.0
5330,348.0
5331,368.0
5332,350.0
5333,358.0
5334,363.0
5335,373.0
5336,370.0
5337,366.0
5338,359.0
5339,360.0
5340,341.0
5341,264.0
5342,184.0
5343,155.0
5344,160.0
5345,81.0
5346,54.0
5347,39.0
5348,32.0
5349,20.0
5350,21.0
5351,19.0
5352,30.0
5353,28.0
5354,42.0
5355,65.0
5356,83.0
5357,67.0
5358,64.0
5359,137.0
5360,197.0
5361,161.0
5362,199.0
5363,175.0
5364,123.0
5365,127.0
5366,123.0
5367,112.0
5368,94.0
5369,70.0
5370,50.0
5371,36.0
5372,15.0
5373,6.0
5374,19.0
5375,9.0
5376,11.0
5377,47.0
5378,41.0
5379,74.0
5380,85.0
5381,90.0
5382,131.0
5383,179.0
5384,243.0
5385,268.0
5386,233.0
5387,188.0
5388,186.0
5389,147.0
5390,216.0
5391,180.0
5392,168.0
5393,109.0
5394,255.0
5395,232.0
5396,212.0
5397,280.0
5398,260.0
5399,231.0
5400,182.0
5401,195.0
5402,143.0
5403,145.0
5404,113.0
5405,123.0
5406,109.0
5407,99.0
5408,77.0
5409,103.0
5410,96.0
5411,91.0
5412,84.0
5413,106.0
5414,161.0
5415,90.0
5416,103.0
5417,59.0
5418,47.0
5419,42.0
5420,26.0
5421,13.0
5422,24.0
5423,12.0
5424,4.0
5425,2.0
5426,44.0
5427,92.0
5428,135.0
5429,140.0
5430,114.0
5431,295.0
5432,247.0
5433,188.0
5434,257.0
5435,213.0
5436,308.0
5437,295.0
5438,294.0
5439,259.0
5440,245.0
5441,214.0
5442,179.0
5443,199.0
5444,176.0
5445,214.0
5446,171.0
5447,195.0
5448,156.0
5449,138.0
5450,99.0
5451,96.0
5452,109.0
5453,132.0
5454,161.0
5455,144.0
5456,131.0
5457,116.0
5458,104.0
5459,138.0
5460,159.0
5461,79.0
5462,39.0
5463,47.0
5464,102.0
5465,61.0
5466,26.0
5467,7.0
5468,3.0
5469,3.0
5470,34.0
5471,80.0
5472,97.0
5473,133.0
5474,213.0
5475,268.0
5476,219.0
5477,210.0
5478,258.0
5479,145.0
5480,186.0
5481,189.0
5482,132.0
5483,171.0
5484,217.0
5485,251.0
5486,195.0
5487,189.0
5488,107.0
5489,113.0
5490,122.0
5491,147.0
5492,129.0
5493,85.0
5494,63.0
5495,126.0
5496,120.0
5497,113.0
5498,92.0
5499,91.0
5500,52.0
5501,48.0
5502,50.0
5503,36.0
5504,29.0
5505,33.0
5506,14.0
5507,2.0
5508,1.0
5509,10.0
5510,2.0
5511,5.0
5512,20.0
5513,82.0
5514,90.0
5515,91.0
5516,98.0
5517,73.0
5518,139.0
5519,117.0
5520,84.0
5521,86.0
5522,77.0
5523,78.0
5524,93.0
5525,100.0
5526,157.0
5527,161.0
5528,176.0
5529,220.0
5530,176.0
5531,156.0
5532,183.0
5533,135.0
5534,167.0
5535,237.0
5536,206.0
5537,108.0
5538,100.0
5539,76.0
5540,128.0
5541,63.0
5542,105.0
5543,90.0
5544,96.0
5545,62.0
5546,52.0
5547,44.0
5548,76.0
5549,144.0
5550,131.0
5551,99.0
5552,69.0
5553,159.0
5554,136.0
5555,159.0
5556,159.0
5557,133.0
5558,111.0
5559,46.0
5560,18.0
5561,12.0
5562,4.0
5563,2.0
5564,3.0
5565,4.0
5566,13.0
5567,41.0
5568,34.0
5569,33.0
5570,46.0
5571,47.0
5572,48.0
5573,56.0
5574,51.0
5575,63.0
5576,74.0
5577,77.0
5578,83.0
5579,72.0
5580,74.0
5581,72.0
5582,70.0
5583,33.0
5584,21.0
5585,17.0
5586,11.0
5587,7.0
5588,5.0
5589,1.0
5590,1.0
5591,7.0
5592,16.0
5593,20.0
5594,26.0
5595,28.0
5596,39.0
5597,42.0
5598,57.0
5599,69.0
5600,66.0
5601,71.0
5602,61.0
5603,54.0
5604,44.0
5605,30.0
5606,32.0
5607,46.0
5608,49.0
5609,36.0
5610,41.0
5611,17.0
5612,7.0
5613,6.0
5614,8.0
5615,4.0
5616,4.0
5617,2.0
5618,5.0
5619,8.0
5620,8.0
5621,11.0
5622,14.0
5623,20.0
5624,34.0
5625,39.0
5626,23.0
5627,19.0
5628,11.0
5629,11.0
5630,5.0
5631,5.0
5632,3.0
5633,5.0
5634,4.0
5635,3.0
5636,2.0
5637,1.0
5638,5.0
5639,14.0
5640,3.0
5641,1.0
5642,1.0
5643,1.0
5644,3.0
5645,7.0
5646,13.0
5647,15.0
5648,13.0
5649,16.0
5650,26.0
5651,26.0
5652,31.0
5653,34.0
5654,41.0
5655,61.0
5656,79.0
5657,117.0
5658,143.0
5659,132.0
5660,151.0
5661,136.0
5662,104.0
5663,89.0
5664,91.0
5665,75.0
5666,71.0
5667,59.0
5668,49.0
5669,32.0
5670,24.0
5671,24.0
5672,22.0
5673,22.0
5674,28.0
5675,49.0
5676,75.0
5677,93.0
5678,110.0
5679,125.0
5680,165.0
5681,241.0
5682,276.0
5683,306.0
5684,283.0
5685,253.0
5686,196.0
5687,177.0
5688,107.0
5689,62.0
5690,52.0
5691,52.0
5692,36.0
5693,22.0
5694,22.0
5695,31.0
5696,40.0
5697,34.0
5698,37.0
5699,24.0
5700,40.0
5701,60.0
5702,62.0
5703,77.0
5704,92.0
5705,119.0
5706,148.0
5707,158.0
5708,168.0
5709,152.0
5710,122.0
5711,82.0
5712,80.0
5713,51.0
5714,52.0
5715,56.0
5716,52.0
5717,82.0
5718,53.0
5719,78.0
5720,64.0
5721,23.0
5722,15.0
5723,29.0
5724,32.0
5725,46.0
5726,53.0
5727,68.0
5728,167.0
5729,56.0
5730,114.0
5731,256.0
5732,265.0
5733,231.0
5734,149.0
5735,105.0
5736,124.0
5737,131.0
5738,76.0
5739,29.0
5740,13.0
5741,12.0
5742,12.0
5743,5.0
5744,3.0
5745,2.0
5746,9.0
5747,5.0
5748,2.0
5749,2.0
5750,1.0
5751,2.0
5752,2.0
5753,2.0
5754,3.0
5755,8.0
5756,29.0
5757,128.0
5758,136.0
5759,144.0
5760,82.0
5761,31.0
5762,47.0
5763,54.0
5764,34.0
5765,29.0
5766,19.0
5767,40.0
5768,41.0
5769,15.0
5770,12.0
5771,46.0
5772,28.0
5773,15.0
5774,20.0
5775,25.0
5776,28.0
5777,84.0
5778,127.0
5779,70.0
5780,88.0
5781,62.0
5782,53.0
5783,29.0
5784,21.0
5785,16.0
5786,5.0
5787,4.0
5788,4.0
5789,4.0
5790,1.0
5791,0.0
5792,1.0
5793,1.0
5794,0.0
5795,3.0
5796,1.0
5797,1.0
5798,2.0
5799,1.0
5800,1.0
5801,2.0
5802,1.0
5803,1.0
5804,2.0
5805,2.0
5806,2.0
5807,1.0
5808,1.0
5809,0.0
5810,0.0
5811,0.0
5812,0.0
5813,0.0
5814,0.0
5815,1.0
5816,0.0
5817,5.0
5818,8.0
5819,4.0
5820,2.0
5821,2.0
5822,5.0
5823,15.0
5824,25.0
5825,24.0
5826,19.0
5827,22.0
5828,25.0
5829,32.0
5830,56.0
5831,215.0
5832,359.0
5833,355.0
5834,339.0
5835,316.0
5836,131.0
5837,61.0
5838,9.0
5839,2.0
5840,40.0
5841,71.0
5842,89.0
5843,81.0
5844,106.0
5845,136.0
5846,240.0
5847,270.0
5848,169.0
5849,186.0
5850,232.0
5851,179.0
5852,141.0
5853,133.0
5854,98.0
5855,92.0
5856,139.0
5857,179.0
5858,162.0
5859,158.0
5860,197.0
5861,223.0
5862,234.0
5863,222.0
5864,224.0
5865,209.0
5866,210.0
5867,210.0
5868,164.0
5869,137.0
5870,143.0
5871,151.0
5872,147.0
5873,134.0
5874,109.0
5875,48.0
5876,120.0
5877,135.0
5878,136.0
5879,107.0
5880,130.0
5881,183.0
5882,227.0
5883,290.0
5884,329.0
5885,357.0
5886,283.0
5887,343.0
5888,355.0
5889,364.0
5890,365.0
5891,360.0
5892,352.0
5893,335.0
5894,332.0
5895,324.0
5896,248.0
5897,247.0
5898,273.0
5899,267.0
5900,258.0
5901,213.0
5902,174.0
5903,189.0
5904,155.0
5905,118.0
5906,104.0
5907,114.0
5908,68.0
5909,52.0
5910,76.0
5911,127.0
5912,156.0
5913,137.0
5914,130.0
5915,149.0
5916,176.0
5917,198.0
5918,219.0
5919,240.0
5920,167.0
5921,143.0
5922,107.0
5923,175.0
5924,269.0
5925,305.0
5926,336.0
5927,338.0
5928,360.0
5929,367.0
5930,305.0
5931,159.0
5932,174.0
5933,232.0
5934,246.0
5935,244.0
5936,306.0
5937,318.0
5938,338.0
5939,336.0
5940,346.0
5941,313.0
5942,334.0
5943,357.0
5944,362.0
5945,360.0
5946,364.0
5947,366.0
5948,364.0
5949,355.0
5950,360.0
5951,351.0
5952,334.0
5953,307.0
5954,291.0
5955,245.0
5956,235.0
5957,272.0
5958,279.0
5959,291.0
5960,271.0
5961,277.0
5962,260.0
5963,282.0
5964,276.0
5965,289.0
5966,326.0
5967,351.0
5968,353.0
5969,325.0
5970,257.0
5971,284.0
5972,253.0
5973,285.0
5974,318.0
5975,303.0
5976,359.0
5977,333.0
5978,332.0
5979,358.0
5980,324.0
5981,212.0
5982,110.0
5983,97.0
5984,67.0
5985,26.0
5986,10.0
5987,9.0
5988,12.0
5989,22.0
5990,26.0
5991,18.0
5992,10.0
5993,2.0
5994,2.0
5995,2.0
5996,1.0
5997,10.0
5998,16.0
5999,0.0
6000,0.0
6001,0.0
6002,2.0
6003,5.0
6004,6.0
6005,0.0
6006,0.0
6007,0.0
6008,0.0
6009,0.0
6010,0.0
6011,0.0
6012,0.0
6013,1.0
6014,0.0
6015,0.0
6016,0.0
6017,0.0
6018,0.0
6019,16.0
6020,31.0
6021,24.0
6022,17.0
6023,12.0
6024,1.0
6025,0.0
6026,0.0
6027,2.0
6028,1.0
6029,2.0
6030,3.0
6031,6.0
6032,22.0
6033,13.0
6034,10.0
6035,23.0
6036,36.0
6037,61.0
6038,90.0
6039,131.0
6040,115.0
6041,106.0
6042,149.0
6043,86.0
6044,22.0
6045,8.0
6046,7.0
6047,12.0
6048,19.0
6049,38.0
6050,127.0
6051,259.0
6052,335.0
6053,337.0
6054,353.0
6055,357.0
6056,351.0
6057,353.0
6058,354.0
6059,352.0
6060,351.0
6061,350.0
6062,349.0
6063,345.0
6064,360.0
6065,354.0
6066,361.0
6067,357.0
6068,360.0
6069,360.0
6070,348.0
6071,311.0
6072,298.0
6073,255.0
6074,224.0
6075,184.0
6076,157.0
6077,156.0
6078,117.0
6079,131.0
6080,188.0
6081,237.0
6082,245.0
6083,312.0
6084,340.0
6085,341.0
6086,287.0
6087,292.0
6088,313.0
6089,258.0
6090,264.0
6091,292.0
6092,366.0
6093,375.0
6094,374.0
6095,371.0
6096,355.0
6097,310.0
6098,260.0
6099,160.0
6100,155.0
6101,188.0
6102,182.0
6103,126.0
6104,126.0
6105,143.0
6106,155.0
6107,171.0
6108,159.0
6109,109.0
6110,119.0
6111,137.0
6112,147.0
6113,112.0
6114,146.0
6115,136.0
6116,165.0
6117,129.0
6118,140.0
6119,166.0
6120,241.0
6121,194.0
6122,145.0
6123,238.0
6124,279.0
6125,345.0
6126,360.0
6127,329.0
6128,231.0
6129,202.0
6130,253.0
6131,290.0
6132,280.0
6133,278.0
6134,294.0
6135,304.0
6136,332.0
6137,315.0
6138,273.0
6139,304.0
6140,302.0
6141,256.0
6142,218.0
6143,235.0
6144,194.0
6145,142.0
6146,134.0
6147,145.0
6148,133.0
6149,104.0
6150,73.0
6151,69.0
6152,78.0
6153,62.0
6154,56.0
6155,62.0
6156,64.0
6157,74.0
6158,69.0
6159,46.0
6160,28.0
6161,24.0
6162,30.0
6163,22.0
6164,33.0
6165,64.0
6166,112.0
6167,183.0
6168,238.0
6169,303.0
6170,329.0
6171,342.0
6172,261.0
6173,257.0
6174,260.0
6175,264.0
6176,371.0
6177,367.0
6178,366.0
6179,368.0
6180,368.0
6181,366.0
6182,366.0
6183,364.0
6184,367.0
6185,368.0
6186,364.0
6187,365.0
6188,358.0
6189,364.0
6190,366.0
6191,367.0
6192,368.0
6193,364.0
6194,366.0
6195,366.0
6196,358.0
6197,355.0
6198,352.0
6199,325.0
6200,254.0
6201,271.0
6202,263.0
6203,285.0
6204,305.0
6205,334.0
6206,310.0
6207,304.0
6208,285.0
6209,265.0
6210,254.0
6211,245.0
6212,163.0
6213,193.0
6214,199.0
6215,208.0
6216,218.0
6217,201.0
6218,272.0
6219,260.0
6220,300.0
6221,308.0
6222,338.0
6223,349.0
6224,301.0
6225,349.0
6226,368.0
6227,347.0
6228,335.0
6229,360.0
6230,325.0
6231,361.0
6232,362.0
6233,362.0
6234,355.0
6235,362.0
6236,360.0
6237,358.0
6238,342.0
6239,341.0
6240,326.0
6241,303.0
6242,301.0
6243,295.0
6244,283.0
6245,306.0
6246,313.0
6247,321.0
6248,321.0
6249,341.0
6250,347.0
6251,339.0
6252,322.0
6253,312.0
6254,291.0
6255,317.0
6256,301.0
6257,325.0
6258,321.0
6259,195.0
6260,227.0
6261,170.0
6262,223.0
6263,168.0
6264,133.0
6265,111.0
6266,92.0
6267,88.0
6268,69.0
6269,45.0
6270,24.0
6271,25.0
6272,35.0
6273,38.0
6274,52.0
6275,56.0
6276,58.0
6277,56.0
6278,76.0
6279,82.0
6280,77.0
6281,60.0
6282,75.0
6283,83.0
6284,63.0
6285,48.0
6286,81.0
6287,78.0
6288,82.0
6289,71.0
6290,67.0
6291,70.0
6292,79.0
6293,104.0
6294,97.0
6295,91.0
6296,51.0
6297,73.0
6298,92.0
6299,104.0
6300,111.0
6301,122.0
6302,92.0
6303,94.0
6304,123.0
6305,216.0
6306,250.0
6307,220.0
6308,210.0
6309,191.0
6310,174.0
6311,246.0
6312,251.0
6313,164.0
6314,126.0
6315,153.0
6316,168.0
6317,180.0
6318,145.0
6319,131.0
6320,115.0
6321,70.0
6322,95.0
6323,63.0
6324,61.0
6325,60.0
6326,30.0
6327,17.0
6328,8.0
6329,0.0
6330,1.0
6331,1.0
6332,0.0
6333,0.0
6334,0.0
6335,0.0
6336,7.0
6337,22.0
6338,29.0
6339,20.0
6340,17.0
6341,7.0
6342,0.0
6343,1.0
6344,10.0
6345,17.0
6346,23.0
6347,28.0
6348,22.0
6349,27.0
6350,42.0
6351,60.0
6352,90.0
6353,139.0
6354,146.0
6355,150.0
6356,213.0
6357,243.0
6358,254.0
6359,270.0
6360,317.0
6361,333.0
6362,342.0
6363,332.0
6364,305.0
6365,274.0
6366,232.0
6367,219.0
6368,256.0
6369,255.0
6370,248.0
6371,260.0
6372,239.0
6373,249.0
6374,275.0
6375,282.0
6376,294.0
6377,297.0
6378,279.0
6379,238.0
6380,180.0
6381,149.0
6382,105.0
6383,76.0
6384,52.0
6385,27.0
6386,19.0
6387,6.0
6388,3.0
6389,8.0
6390,5.0
6391,5.0
6392,4.0
6393,4.0
6394,6.0
6395,8.0
6396,10.0
6397,5.0
6398,5.0
6399,7.0
6400,9.0
6401,8.0
6402,9.0
6403,14.0
6404,23.0
6405,27.0
6406,21.0
6407,25.0
6408,30.0
6409,31.0
6410,37.0
6411,22.0
6412,40.0
6413,35.0
6414,36.0
6415,38.0
6416,44.0
6417,64.0
6418,73.0
6419,72.0
6420,59.0
6421,87.0
6422,90.0
6423,85.0
6424,67.0
6425,65.0
6426,71.0
6427,62.0
6428,46.0
6429,48.0
6430,46.0
6431,50.0
6432,27.0
6433,3.0
6434,4.0
6435,7.0
6436,3.0
6437,2.0
6438,2.0
6439,4.0
6440,5.0
6441,8.0
6442,30.0
6443,24.0
6444,21.0
6445,19.0
6446,18.0
6447,17.0
6448,26.0
6449,43.0
6450,61.0
6451,102.0
6452,164.0
6453,213.0
6454,288.0
6455,279.0
6456,224.0
6457,204.0
6458,182.0
6459,155.0
6460,173.0
6461,184.0
6462,216.0
6463,222.0
6464,180.0
6465,225.0
6466,187.0
6467,172.0
6468,104.0
6469,47.0
6470,47.0
6471,67.0
6472,144.0
6473,76.0
6474,33.0
6475,28.0
6476,55.0
6477,52.0
6478,69.0
6479,84.0
6480,97.0
6481,66.0
6482,130.0
6483,174.0
6484,216.0
6485,299.0
6486,288.0
6487,321.0
6488,304.0
6489,255.0
6490,207.0
6491,197.0
6492,156.0
6493,111.0
6494,88.0
6495,56.0
6496,88.0
6497,110.0
6498,199.0
6499,236.0
6500,318.0
6501,359.0
6502,365.0
6503,363.0
6504,361.0
6505,293.0
6506,289.0
6507,318.0
6508,344.0
6509,351.0
6510,335.0
6511,309.0
6512,312.0
6513,315.0
6514,319.0
6515,310.0
6516,331.0
6517,351.0
6518,334.0
6519,303.0
6520,307.0
6521,214.0
6522,244.0
6523,197.0
6524,171.0
6525,213.0
6526,171.0
6527,223.0
6528,207.0
6529,144.0
6530,124.0
6531,118.0
6532,109.0
6533,78.0
6534,81.0
6535,143.0
6536,352.0
6537,365.0
6538,365.0
6539,366.0
6540,367.0
6541,364.0
6542,365.0
6543,358.0
6544,351.0
6545,315.0
6546,351.0
6547,346.0
6548,345.0
6549,342.0
6550,302.0
6551,261.0
6552,212.0
6553,130.0
6554,115.0
6555,101.0
6556,88.0
6557,50.0
6558,21.0
6559,5.0
6560,3.0
6561,5.0
6562,8.0
6563,10.0
6564,20.0
6565,14.0
6566,56.0
6567,52.0
6568,30.0
6569,51.0
6570,17.0
6571,29.0
6572,61.0
6573,63.0
6574,81.0
6575,117.0
6576,74.0
6577,78.0
6578,80.0
6579,96.0
6580,104.0
6581,128.0
6582,143.0
6583,150.0
6584,178.0
6585,166.0
6586,180.0
6587,190.0
6588,159.0
6589,202.0
6590,256.0
6591,320.0
6592,338.0
6593,288.0
6594,251.0
6595,298.0
6596,300.0
6597,224.0
6598,165.0
6599,128.0
6600,157.0
6601,158.0
6602,176.0
6603,128.0
6604,73.0
6605,69.0
6606,119.0
6607,125.0
6608,94.0
6609,114.0
6610,62.0
6611,40.0
6612,38.0
6613,25.0
6614,28.0
6615,19.0
6616,14.0
6617,43.0
6618,49.0
6619,31.0
6620,21.0
6621,1.0
6622,0.0
6623,0.0
6624,0.0
6625,0.0
6626,0.0
6627,0.0
6628,1.0
6629,5.0
6630,17.0
6631,37.0
6632,64.0
6633,114.0
6634,150.0
6635,155.0
6636,131.0
6637,92.0
6638,81.0
6639,75.0
6640,73.0
6641,81.0
6642,115.0
6643,176.0
6644,213.0
6645,239.0
6646,205.0
6647,217.0
6648,245.0
6649,316.0
6650,275.0
6651,226.0
6652,276.0
6653,251.0
6654,194.0
6655,258.0
6656,255.0
6657,238.0
6658,246.0
6659,183.0
6660,194.0
6661,243.0
6662,211.0
6663,181.0
6664,133.0
6665,114.0
6666,91.0
6667,88.0
6668,81.0
6669,63.0
6670,34.0
6671,27.0
6672,32.0
6673,26.0
6674,33.0
6675,26.0
6676,17.0
6677,17.0
6678,21.0
6679,19.0
6680,48.0
6681,16.0
6682,40.0
6683,33.0
6684,23.0
6685,26.0
6686,23.0
6687,22.0
6688,20.0
6689,37.0
6690,50.0
6691,68.0
6692,65.0
6693,99.0
6694,124.0
6695,44.0
6696,36.0
6697,50.0
6698,63.0
6699,39.0
6700,32.0
6701,88.0
6702,86.0
6703,60.0
6704,45.0
6705,32.0
6706,11.0
6707,2.0
6708,0.0
6709,0.0
6710,0.0
6711,0.0
6712,1.0
6713,1.0
6714,0.0
6715,0.0
6716,0.0
6717,4.0
6718,38.0
6719,90.0
6720,160.0
6721,164.0
6722,138.0
6723,202.0
6724,234.0
6725,243.0
6726,273.0
6727,284.0
6728,335.0
6729,344.0
6730,346.0
6731,343.0
6732,316.0
6733,252.0
6734,207.0
6735,203.0
6736,219.0
6737,173.0
6738,135.0
6739,170.0
6740,192.0
6741,149.0
6742,177.0
6743,193.0
6744,218.0
6745,203.0
6746,237.0
6747,279.0
6748,260.0
6749,301.0
6750,301.0
6751,279.0
6752,276.0
6753,312.0
6754,313.0
6755,299.0
6756,273.0
6757,244.0
6758,227.0
6759,206.0
6760,93.0
6761,95.0
6762,100.0
6763,94.0
6764,141.0
6765,156.0
6766,202.0
6767,180.0
6768,168.0
6769,220.0
6770,281.0
6771,266.0
6772,289.0
6773,339.0
6774,314.0
6775,324.0
6776,279.0
6777,278.0
6778,266.0
6779,275.0
6780,294.0
6781,296.0
6782,289.0
6783,333.0
6784,329.0
6785,288.0
6786,285.0
6787,356.0
6788,361.0
6789,357.0
6790,366.0
6791,367.0
6792,361.0
6793,361.0
6794,349.0
6795,348.0
6796,366.0
6797,364.0
6798,364.0
6799,367.0
6800,369.0
6801,368.0
6802,362.0
6803,360.0
6804,347.0
6805,348.0
6806,359.0
6807,361.0
6808,366.0
6809,369.0
6810,369.0
6811,369.0
6812,369.0
6813,367.0
6814,369.0
6815,368.0
6816,368.0
6817,367.0
6818,367.0
6819,360.0
6820,338.0
6821,254.0
6822,275.0
6823,259.0
6824,218.0
6825,150.0
6826,207.0
6827,247.0
6828,289.0
6829,267.0
6830,244.0
6831,226.0
6832,254.0
6833,239.0
6834,265.0
6835,236.0
6836,235.0
6837,193.0
6838,180.0
6839,150.0
6840,140.0
6841,110.0
6842,82.0
6843,63.0
6844,43.0
6845,35.0
6846,25.0
6847,21.0
6848,4.0
6849,1.0
6850,21.0
6851,53.0
6852,56.0
6853,70.0
6854,50.0
6855,54.0
6856,90.0
6857,192.0
6858,232.0
6859,315.0
6860,361.0
6861,369.0
6862,367.0
6863,365.0
6864,353.0
6865,365.0
6866,365.0
6867,364.0
6868,365.0
6869,359.0
6870,359.0
6871,353.0
6872,349.0
6873,309.0
6874,246.0
6875,169.0
6876,91.0
6877,41.0
6878,17.0
6879,3.0
6880,2.0
6881,0.0
6882,1.0
6883,3.0
6884,60.0
6885,143.0
6886,199.0
6887,230.0
6888,200.0
6889,290.0
6890,342.0
6891,348.0
6892,355.0
6893,361.0
6894,351.0
6895,331.0
6896,310.0
6897,203.0
6898,95.0
6899,80.0
6900,45.0
6901,25.0
6902,24.0
6903,8.0
6904,3.0
6905,2.0
6906,3.0
6907,2.0
6908,1.0
6909,1.0
6910,0.0
6911,1.0
6912,15.0
6913,24.0
6914,30.0
6915,58.0
6916,35.0
6917,8.0
6918,15.0
6919,11.0
6920,27.0
6921,37.0
6922,23.0
6923,17.0
6924,54.0
6925,67.0
6926,48.0
6927,88.0
6928,97.0
6929,110.0
6930,85.0
6931,52.0
6932,89.0
6933,68.0
6934,31.0
6935,26.0
6936,29.0
6937,56.0
6938,88.0
6939,84.0
6940,100.0
6941,117.0
6942,181.0
6943,221.0
6944,260.0
6945,247.0
6946,248.0
6947,214.0
6948,212.0
6949,221.0
6950,188.0
6951,145.0
6952,146.0
6953,82.0
6954,11.0
6955,2.0
6956,9.0
6957,5.0
6958,6.0
6959,1.0
6960,19.0
6961,36.0
6962,51.0
6963,94.0
6964,179.0
6965,175.0
6966,168.0
6967,190.0
6968,142.0
6969,180.0
6970,194.0
6971,159.0
6972,136.0
6973,196.0
6974,196.0
6975,217.0
6976,232.0
6977,331.0
6978,367.0
6979,360.0
6980,370.0
6981,371.0
6982,370.0
6983,370.0
6984,371.0
6985,371.0
6986,365.0
6987,361.0
6988,366.0
6989,354.0
6990,342.0
6991,337.0
6992,322.0
6993,280.0
6994,202.0
6995,216.0
6996,253.0
6997,256.0
6998,244.0
6999,170.0
7000,125.0
7001,216.0
7002,289.0
7003,300.0
7004,339.0
7005,339.0
7006,287.0
7007,253.0
7008,203.0
7009,107.0
7010,77.0
7011,50.0
7012,44.0
7013,18.0
7014,13.0
7015,17.0
7016,27.0
7017,28.0
7018,19.0
7019,10.0
7020,1.0
7021,1.0
7022,0.0
7023,0.0
7024,0.0
7025,0.0
7026,0.0
7027,0.0
7028,0.0
7029,0.0
7030,5.0
7031,10.0
7032,14.0
7033,30.0
7034,41.0
7035,58.0
7036,116.0
7037,113.0
7038,114.0
7039,111.0
7040,195.0
7041,262.0
7042,222.0
7043,82.0
7044,265.0
7045,92.0
7046,42.0
7047,7.0
7048,14.0
7049,36.0
7050,60.0
7051,66.0
7052,83.0
7053,50.0
7054,39.0
7055,46.0
7056,17.0
7057,30.0
7058,61.0
7059,74.0
7060,102.0
7061,77.0
7062,110.0
7063,181.0
7064,233.0
7065,239.0
7066,246.0
7067,188.0
7068,209.0
7069,174.0
7070,163.0
7071,173.0
7072,162.0
7073,163.0
7074,163.0
7075,184.0
7076,165.0
7077,153.0
7078,141.0
7079,112.0
7080,74.0
7081,65.0
7082,55.0
7083,32.0
7084,24.0
7085,6.0
7086,5.0
7087,37.0
7088,32.0
7089,36.0
7090,32.0
7091,38.0
7092,16.0
7093,10.0
7094,8.0
7095,14.0
7096,14.0
7097,20.0
7098,30.0
7099,36.0
7100,65.0
7101,89.0
7102,226.0
7103,144.0
7104,110.0
7105,102.0
7106,123.0
7107,112.0
7108,62.0
7109,68.0
7110,55.0
7111,66.0
7112,97.0
7113,156.0
7114,187.0
7115,200.0
7116,159.0
7117,93.0
7118,58.0
7119,65.0
7120,112.0
7121,92.0
7122,148.0
7123,109.0
7124,150.0
7125,189.0
7126,203.0
7127,225.0
7128,220.0
7129,299.0
7130,292.0
7131,206.0
7132,318.0
7133,287.0
7134,201.0
7135,175.0
7136,234.0
7137,257.0
7138,272.0
7139,341.0
7140,334.0
7141,329.0
7142,317.0
7143,268.0
7144,258.0
7145,245.0
7146,136.0
7147,231.0
7148,349.0
7149,351.0
7150,326.0
7151,338.0
7152,371.0
7153,371.0
7154,333.0
7155,266.0
7156,265.0
7157,265.0
7158,265.0
7159,265.0
7160,349.0
7161,363.0
7162,363.0
7163,367.0
7164,368.0
7165,353.0
7166,339.0
7167,363.0
7168,340.0
7169,351.0
7170,354.0
7171,357.0
7172,358.0
7173,365.0
7174,368.0
7175,368.0
7176,357.0
7177,349.0
7178,354.0
7179,366.0
7180,270.0
7181,265.0
7182,265.0
7183,367.0
7184,264.0
7185,361.0
7186,362.0
7187,363.0
7188,369.0
7189,369.0
7190,367.0
7191,364.0
7192,360.0
7193,358.0
7194,287.0
7195,281.0
7196,353.0
7197,351.0
7198,357.0
7199,355.0
7200,359.0
7201,356.0
7202,363.0
7203,360.0
7204,362.0
7205,355.0
7206,330.0
7207,303.0
7208,263.0
7209,230.0
7210,153.0
7211,114.0
7212,76.0
7213,57.0
7214,81.0
7215,120.0
7216,153.0
7217,100.0
7218,101.0
7219,108.0
7220,96.0
7221,86.0
7222,88.0
7223,86.0
7224,66.0
7225,64.0
7226,106.0
7227,59.0
7228,39.0
7229,58.0
7230,88.0
7231,100.0
7232,91.0
7233,76.0
7234,40.0
7235,31.0
7236,31.0
7237,26.0
7238,17.0
7239,23.0
7240,16.0
7241,33.0
7242,38.0
7243,69.0
7244,73.0
7245,46.0
7246,44.0
7247,29.0
7248,34.0
7249,33.0
7250,33.0
7251,21.0
7252,7.0
7253,5.0
7254,3.0
7255,3.0
7256,2.0
7257,1.0
7258,0.0
7259,0.0
7260,0.0
7261,0.0
7262,0.0
7263,0.0
7264,0.0
7265,0.0
7266,1.0
7267,3.0
7268,3.0
7269,4.0
7270,6.0
7271,13.0
7272,14.0
7273,23.0
7274,27.0
7275,44.0
7276,51.0
7277,52.0
7278,46.0
7279,45.0
7280,49.0
7281,46.0
7282,41.0
7283,45.0
7284,36.0
7285,37.0
7286,24.0
7287,13.0
7288,4.0
7289,2.0
7290,1.0
7291,2.0
7292,3.0
7293,3.0
7294,7.0
7295,14.0
7296,25.0
7297,28.0
7298,47.0
7299,52.0
7300,63.0
7301,101.0
7302,128.0
7303,130.0
7304,143.0
7305,152.0
7306,217.0
7307,304.0
7308,262.0
7309,200.0
7310,193.0
7311,252.0
7312,310.0
7313,289.0
7314,310.0
7315,270.0
7316,248.0
7317,210.0
7318,178.0
7319,136.0
7320,107.0
7321,103.0
7322,67.0
7323,73.0
7324,74.0
7325,83.0
7326,81.0
7327,96.0
7328,90.0
7329,107.0
7330,100.0
7331,85.0
7332,90.0
7333,125.0
7334,191.0
7335,183.0
7336,147.0
7337,121.0
7338,172.0
7339,293.0
7340,321.0
7341,337.0
7342,222.0
7343,175.0
7344,109.0
7345,148.0
7346,185.0
7347,133.0
7348,112.0
7349,99.0
7350,82.0
7351,64.0
7352,38.0
7353,35.0
7354,40.0
7355,45.0
7356,36.0
7357,23.0
7358,9.0
7359,7.0
7360,5.0
7361,6.0
7362,15.0
7363,38.0
7364,51.0
7365,49.0
7366,30.0
7367,30.0
7368,30.0
7369,30.0
7370,48.0
7371,45.0
7372,57.0
7373,92.0
7374,148.0
7375,180.0
7376,192.0
7377,189.0
7378,171.0
7379,264.0
7380,343.0
7381,330.0
7382,277.0
7383,213.0
7384,176.0
7385,162.0
7386,146.0
7387,122.0
7388,84.0
7389,70.0
7390,52.0
7391,110.0
7392,269.0
7393,292.0
7394,292.0
7395,255.0
7396,204.0
7397,163.0
7398,129.0
7399,145.0
7400,153.0
7401,155.0
7402,158.0
7403,123.0
7404,116.0
7405,120.0
7406,123.0
7407,105.0
7408,73.0
7409,98.0
7410,86.0
7411,70.0
7412,79.0
7413,103.0
7414,124.0
7415,108.0
7416,97.0
7417,83.0
7418,78.0
7419,69.0
7420,63.0
7421,60.0
7422,36.0
7423,30.0
7424,27.0
7425,27.0
7426,15.0
7427,5.0
7428,2.0
7429,0.0
7430,0.0
7431,0.0
7432,0.0
7433,0.0
7434,0.0
7435,0.0
7436,0.0
7437,0.0
7438,0.0
7439,0.0
7440,0.0
7441,0.0
7442,0.0
7443,0.0
7444,0.0
7445,0.0
7446,0.0
7447,1.0
7448,1.0
7449,1.0
7450,1.0
7451,0.0
7452,1.0
7453,16.0
7454,10.0
7455,10.0
7456,23.0
7457,44.0
7458,56.0
7459,55.0
7460,86.0
7461,110.0
7462,106.0
7463,86.0
7464,111.0
7465,149.0
7466,170.0
7467,214.0
7468,228.0
7469,153.0
7470,135.0
7471,95.0
7472,108.0
7473,64.0
7474,54.0
7475,36.0
7476,24.0
7477,11.0
7478,4.0
7479,0.0
7480,0.0
7481,0.0
7482,0.0
7483,0.0
7484,0.0
7485,0.0
7486,0.0
7487,0.0
7488,0.0
7489,6.0
7490,19.0
7491,19.0
7492,23.0
7493,19.0
7494,20.0
7495,16.0
7496,19.0
7497,35.0
7498,23.0
7499,27.0
7500,33.0
7501,27.0
7502,22.0
7503,14.0
7504,14.0
7505,24.0
7506,22.0
7507,45.0
7508,48.0
7509,29.0
7510,24.0
7511,45.0
7512,73.0
7513,56.0
7514,32.0
7515,19.0
7516,17.0
7517,16.0
7518,7.0
7519,1.0
7520,2.0
7521,8.0
7522,5.0
7523,18.0
7524,29.0
7525,8.0
7526,0.0
7527,0.0
7528,0.0
7529,2.0
7530,25.0
7531,55.0
7532,116.0
7533,179.0
7534,217.0
7535,262.0
7536,270.0
7537,299.0
7538,244.0
7539,259.0
7540,239.0
7541,223.0
7542,195.0
7543,205.0
7544,214.0
7545,185.0
7546,184.0
7547,196.0
7548,193.0
7549,185.0
7550,145.0
7551,177.0
7552,184.0
7553,199.0
7554,139.0
7555,182.0
7556,300.0
7557,371.0
7558,371.0
7559,368.0
7560,350.0
7561,299.0
7562,284.0
7563,280.0
7564,285.0
7565,304.0
7566,291.0
7567,327.0
7568,358.0
7569,346.0
7570,353.0
7571,358.0
7572,367.0
7573,361.0
7574,355.0
7575,331.0
7576,321.0
7577,221.0
7578,224.0
7579,282.0
7580,303.0
7581,292.0
7582,340.0
7583,301.0
7584,244.0
7585,125.0
7586,100.0
7587,102.0
7588,90.0
7589,70.0
7590,102.0
7591,64.0
7592,84.0
7593,92.0
7594,100.0
7595,143.0
7596,163.0
7597,223.0
7598,213.0
7599,169.0
7600,214.0
7601,258.0
7602,289.0
7603,295.0
7604,258.0
7605,225.0
7606,198.0
7607,146.0
7608,125.0
7609,120.0
7610,114.0
7611,119.0
7612,76.0
7613,50.0
7614,23.0
7615,29.0
7616,42.0
7617,37.0
7618,27.0
7619,29.0
7620,35.0
7621,9.0
7622,2.0
7623,3.0
7624,20.0
7625,90.0
7626,208.0
7627,220.0
7628,208.0
7629,230.0
7630,181.0
7631,162.0
7632,222.0
7633,224.0
7634,273.0
7635,315.0
7636,364.0
7637,365.0
7638,362.0
7639,370.0
7640,367.0
7641,367.0
7642,369.0
7643,369.0
7644,368.0
7645,368.0
7646,369.0
7647,365.0
7648,353.0
7649,301.0
7650,271.0
7651,302.0
7652,255.0
7653,199.0
7654,196.0
7655,179.0
7656,124.0
7657,107.0
7658,77.0
7659,70.0
7660,68.0
7661,56.0
7662,31.0
7663,41.0
7664,37.0
7665,17.0
7666,25.0
7667,19.0
7668,18.0
7669,49.0
7670,129.0
7671,338.0
7672,363.0
7673,371.0
7674,374.0
7675,374.0
7676,374.0
7677,374.0
7678,374.0
7679,374.0
7680,374.0
7681,369.0
7682,361.0
7683,364.0
7684,353.0
7685,277.0
7686,132.0
7687,71.0
7688,93.0
7689,74.0
7690,44.0
7691,19.0
7692,7.0
7693,1.0
7694,0.0
7695,6.0
7696,38.0
7697,119.0
7698,185.0
7699,200.0
7700,303.0
7701,363.0
7702,352.0
7703,353.0
7704,339.0
7705,331.0
7706,259.0
7707,222.0
7708,257.0
7709,251.0
7710,199.0
7711,178.0
7712,174.0
7713,94.0
7714,75.0
7715,75.0
7716,69.0
7717,53.0
7718,31.0
7719,28.0
7720,36.0
7721,61.0
7722,45.0
7723,134.0
7724,320.0
7725,371.0
7726,371.0
7727,355.0
7728,340.0
7729,313.0
7730,317.0
7731,341.0
7732,346.0
7733,351.0
7734,355.0
7735,358.0
7736,323.0
7737,213.0
7738,265.0
7739,286.0
7740,325.0
7741,363.0
7742,364.0
7743,363.0
7744,354.0
7745,326.0
7746,347.0
7747,330.0
7748,307.0
7749,266.0
7750,249.0
7751,228.0
7752,164.0
7753,126.0
7754,67.0
7755,19.0
7756,3.0
7757,0.0
7758,0.0
7759,0.0
7760,0.0
7761,0.0
7762,0.0
7763,0.0
7764,1.0
7765,1.0
7766,2.0
7767,2.0
7768,3.0
7769,4.0
7770,9.0
7771,18.0
7772,35.0
7773,45.0
7774,47.0
7775,30.0
7776,26.0
7777,18.0
7778,7.0
7779,7.0
7780,4.0
7781,2.0
7782,2.0
7783,9.0
7784,16.0
7785,23.0
7786,30.0
7787,16.0
7788,28.0
7789,29.0
7790,30.0
7791,52.0
7792,47.0
7793,87.0
7794,106.0
7795,109.0
7796,115.0
7797,125.0
7798,127.0
7799,138.0
7800,148.0
7801,127.0
7802,126.0
7803,131.0
7804,108.0
7805,111.0
7806,97.0
7807,85.0
7808,69.0
7809,64.0
7810,57.0
7811,55.0
7812,38.0
7813,39.0
7814,33.0
7815,26.0
7816,37.0
7817,68.0
7818,106.0
7819,140.0
7820,96.0
7821,97.0
7822,80.0
7823,155.0
7824,165.0
7825,179.0
7826,200.0
7827,209.0
7828,238.0
7829,251.0
7830,248.0
7831,253.0
7832,247.0
7833,253.0
7834,264.0
7835,274.0
7836,265.0
7837,255.0
7838,231.0
7839,286.0
7840,326.0
7841,304.0
7842,336.0
7843,315.0
7844,277.0
7845,272.0
7846,292.0
7847,275.0
7848,301.0
7849,276.0
7850,286.0
7851,298.0
7852,329.0
7853,325.0
7854,304.0
7855,314.0
7856,297.0
7857,281.0
7858,288.0
7859,232.0
7860,199.0
7861,186.0
7862,158.0
7863,237.0
7864,258.0
7865,233.0
7866,198.0
7867,195.0
7868,203.0
7869,157.0
7870,139.0
7871,105.0
7872,77.0
7873,62.0
7874,34.0
7875,50.0
7876,77.0
7877,110.0
7878,99.0
7879,107.0
7880,92.0
7881,76.0
7882,108.0
7883,86.0
7884,97.0
7885,80.0
7886,68.0
7887,48.0
7888,33.0
7889,55.0
7890,76.0
7891,82.0
7892,100.0
7893,103.0
7894,102.0
7895,91.0
7896,87.0
7897,93.0
7898,86.0
7899,92.0
7900,101.0
7901,92.0
7902,78.0
7903,84.0
7904,82.0
7905,53.0
7906,57.0
7907,63.0
7908,60.0
7909,49.0
7910,53.0
7911,62.0
7912,96.0
7913,83.0
7914,76.0
7915,85.0
7916,127.0
7917,110.0
7918,89.0
7919,99.0
7920,71.0
7921,76.0
7922,61.0
7923,70.0
7924,119.0
7925,144.0
7926,130.0
7927,134.0
7928,163.0
7929,196.0
7930,212.0
7931,191.0
7932,237.0
7933,240.0
7934,238.0
7935,218.0
7936,218.0
7937,160.0
7938,176.0
7939,191.0
7940,165.0
7941,219.0
7942,175.0
7943,176.0
7944,221.0
7945,209.0
7946,214.0
7947,221.0
7948,263.0
7949,329.0
7950,300.0
7951,355.0
7952,368.0
7953,366.0
7954,359.0
7955,364.0
7956,361.0
7957,358.0
7958,345.0
7959,358.0
7960,348.0
7961,282.0
7962,206.0
7963,191.0
7964,212.0
7965,192.0
7966,221.0
7967,290.0
7968,361.0
7969,354.0
7970,356.0
7971,365.0
7972,365.0
7973,361.0
7974,357.0
7975,320.0
7976,368.0
7977,343.0
7978,267.0
7979,350.0
7980,363.0
7981,361.0
7982,255.0
7983,252.0
7984,253.0
7985,245.0
7986,302.0
7987,330.0
7988,281.0
7989,217.0
7990,178.0
7991,85.0
7992,87.0
7993,98.0
7994,95.0
7995,89.0
7996,128.0
7997,184.0
7998,242.0
7999,251.0
8000,211.0
8001,181.0
8002,176.0
8003,163.0
8004,181.0
8005,234.0
8006,170.0
8007,164.0
8008,156.0
8009,133.0
8010,130.0
8011,107.0
8012,84.0
8013,63.0
8014,44.0
8015,30.0
8016,29.0
8017,37.0
8018,37.0
8019,41.0
8020,46.0
8021,48.0
8022,46.0
8023,59.0
8024,51.0
8025,57.0
8026,62.0
8027,74.0
8028,67.0
8029,52.0
8030,34.0
8031,39.0
8032,94.0
8033,131.0
8034,128.0
8035,93.0
8036,101.0
8037,129.0
8038,128.0
8039,173.0
8040,188.0
8041,163.0
8042,169.0
8043,151.0
8044,225.0
8045,307.0
8046,277.0
8047,311.0
8048,259.0
8049,241.0
8050,252.0
8051,178.0
8052,234.0
8053,198.0
8054,289.0
8055,333.0
8056,283.0
8057,253.0
8058,322.0
8059,297.0
8060,204.0
8061,164.0
8062,107.0
8063,92.0
8064,63.0
8065,35.0
8066,17.0
8067,7.0
8068,6.0
8069,2.0
8070,5.0
8071,10.0
8072,19.0
8073,41.0
8074,56.0
8075,98.0
8076,130.0
8077,175.0
8078,178.0
8079,219.0
8080,248.0
8081,336.0
8082,365.0
8083,367.0
8084,356.0
8085,362.0
8086,358.0
8087,362.0
8088,363.0
8089,356.0
8090,327.0
8091,284.0
8092,290.0
8093,277.0
8094,241.0
8095,259.0
8096,250.0
8097,228.0
8098,220.0
8099,233.0
8100,247.0
8101,267.0
8102,254.0
8103,268.0
8104,278.0
8105,242.0
8106,150.0
8107,130.0
8108,104.0
8109,83.0
8110,106.0
8111,117.0
8112,154.0
8113,138.0
8114,190.0
8115,110.0
8116,87.0
8117,105.0
8118,82.0
8119,48.0
8120,93.0
8121,140.0
8122,149.0
8123,129.0
8124,126.0
8125,121.0
8126,127.0
8127,177.0
8128,252.0
8129,310.0
8130,346.0
8131,361.0
8132,368.0
8133,372.0
8134,372.0
8135,372.0
8136,372.0
8137,372.0
8138,372.0
8139,372.0
8140,372.0
8141,368.0
8142,366.0
8143,372.0
8144,370.0
8145,368.0
8146,368.0
8147,368.0
8148,366.0
8149,366.0
8150,365.0
8151,365.0
8152,367.0
8153,369.0
8154,371.0
8155,372.0
8156,371.0
8157,372.0
8158,371.0
8159,372.0
8160,371.0
8161,371.0
8162,371.0
8163,370.0
8164,366.0
8165,360.0
8166,356.0
8167,367.0
8168,368.0
8169,371.0
8170,361.0
8171,362.0
8172,351.0
8173,358.0
8174,362.0
8175,354.0
8176,328.0
8177,356.0
8178,356.0
8179,316.0
8180,309.0
8181,269.0
8182,221.0
8183,178.0
8184,224.0
8185,337.0
8186,312.0
8187,295.0
8188,255.0
8189,258.0
8190,252.0
8191,254.0
8192,259.0
8193,268.0
8194,367.0
8195,366.0
8196,366.0
8197,368.0
8198,370.0
8199,370.0
8200,369.0
8201,352.0
8202,367.0
8203,365.0
8204,369.0
8205,369.0
8206,369.0
8207,367.0
8208,368.0
8209,217.0
8210,210.0
8211,208.0
8212,210.0
8213,213.0
8214,356.0
8215,360.0
8216,362.0
8217,361.0
8218,363.0
8219,363.0
8220,362.0
8221,349.0
8222,340.0
8223,331.0
8224,317.0
8225,259.0
8226,253.0
8227,349.0
8228,364.0
8229,367.0
8230,366.0
8231,357.0
8232,348.0
8233,361.0
8234,344.0
8235,258.0
8236,274.0
8237,218.0
8238,166.0
8239,145.0
8240,102.0
8241,42.0
8242,21.0
8243,13.0
8244,50.0
8245,57.0
8246,67.0
8247,105.0
8248,153.0
8249,238.0
8250,316.0
8251,362.0
8252,370.0
8253,369.0
8254,369.0
8255,369.0
8256,367.0
8257,369.0
8258,369.0
8259,369.0
8260,369.0
8261,365.0
8262,364.0
8263,369.0
8264,369.0
8265,364.0
8266,350.0
8267,320.0
8268,270.0
8269,183.0
8270,142.0
8271,108.0
8272,101.0
8273,101.0
8274,88.0
8275,62.0
8276,62.0
8277,57.0
8278,49.0
8279,40.0
8280,38.0
8281,39.0
8282,34.0
8283,32.0
8284,33.0
8285,21.0
8286,22.0
8287,33.0
8288,94.0
8289,115.0
8290,98.0
8291,76.0
8292,142.0
8293,199.0
8294,228.0
8295,241.0
8296,281.0
8297,275.0
8298,265.0
8299,289.0
8300,287.0
8301,254.0
8302,188.0
8303,201.0
8304,193.0
8305,281.0
8306,339.0
8307,325.0
8308,361.0
8309,362.0
8310,362.0
8311,351.0
8312,338.0
8313,339.0
8314,339.0
8315,330.0
8316,353.0
8317,338.0
8318,281.0
8319,163.0
8320,135.0
8321,153.0
8322,146.0
8323,121.0
8324,90.0
8325,48.0
8326,23.0
8327,53.0
8328,40.0
8329,28.0
8330,40.0
8331,36.0
8332,49.0
8333,70.0
8334,78.0
8335,93.0
8336,116.0
8337,133.0
8338,182.0
8339,195.0
8340,184.0
8341,182.0
8342,206.0
8343,206.0
8344,212.0
8345,213.0
8346,215.0
8347,216.0
8348,216.0
8349,216.0
8350,216.0
8351,216.0
8352,215.0
8353,215.0
8354,215.0
8355,216.0
8356,212.0
8357,212.0
8358,215.0
8359,212.0
8360,212.0
8361,213.0
8362,214.0
8363,216.0
8364,216.0
8365,213.0
8366,196.0
8367,192.0
8368,166.0
8369,112.0
8370,179.0
8371,216.0
8372,216.0
8373,216.0
8374,215.0
8375,215.0
8376,214.0
8377,213.0
8378,204.0
8379,196.0
8380,122.0
8381,77.0
8382,142.0
8383,199.0
8384,205.0
8385,206.0
8386,206.0
8387,196.0
8388,190.0
8389,190.0
8390,190.0
8391,198.0
8392,191.0
8393,191.0
8394,187.0
8395,141.0
8396,104.0
8397,75.0
8398,76.0
8399,97.0
8400,66.0
8401,46.0
8402,23.0
8403,3.0
8404,9.0
8405,20.0
8406,18.0
8407,18.0
8408,27.0
8409,19.0
8410,29.0
8411,47.0
8412,68.0
8413,95.0
8414,122.0
8415,167.0
8416,173.0
8417,205.0
8418,213.0
8419,215.0
8420,215.0
8421,215.0
8422,215.0
8423,209.0
8424,208.0
8425,214.0
8426,215.0
8427,214.0
8428,215.0
8429,216.0
8430,212.0
8431,209.0
8432,199.0
8433,199.0
8434,180.0
8435,180.0
8436,180.0
8437,176.0
8438,171.0
8439,153.0
8440,162.0
8441,155.0
8442,108.0
8443,80.0
8444,38.0
8445,57.0
8446,85.0
8447,59.0
8448,27.0
8449,23.0
8450,35.0
8451,43.0
8452,70.0
8453,103.0
8454,133.0
8455,175.0
8456,196.0
8457,188.0
8458,175.0
8459,134.0
8460,95.0
8461,101.0
8462,90.0
8463,87.0
8464,91.0
8465,142.0
8466,160.0
8467,189.0
8468,203.0
8469,206.0
8470,133.0
8471,81.0
8472,94.0
8473,149.0
8474,101.0
8475,84.0
8476,48.0
8477,52.0
8478,65.0
8479,65.0
8480,64.0
8481,72.0
8482,80.0
8483,53.0
8484,57.0
8485,63.0
8486,112.0
8487,119.0
8488,126.0
8489,90.0
8490,96.0
8491,84.0
8492,72.0
8493,93.0
8494,183.0
8495,154.0
8496,130.0
8497,145.0
8498,104.0
8499,95.0
8500,66.0
8501,81.0
8502,84.0
8503,96.0
8504,108.0
8505,112.0
8506,84.0
8507,66.0
8508,63.0
8509,60.0
8510,25.0
8511,42.0
8512,43.0
8513,47.0
8514,63.0
8515,110.0
8516,115.0
8517,62.0
8518,42.0
8519,35.0
8520,70.0
8521,90.0
8522,65.0
8523,36.0
8524,62.0
8525,66.0
8526,52.0
8527,70.0
8528,72.0
8529,95.0
8530,98.0
8531,104.0
8532,111.0
8533,101.0
8534,91.0
8535,95.0
8536,114.0
8537,121.0
8538,130.0
8539,117.0
8540,116.0
8541,102.0
8542,76.0
8543,63.0
8544,54.0
8545,49.0
8546,44.0
8547,41.0
8548,41.0
8549,39.0
8550,33.0
8551,42.0
8552,39.0
8553,69.0
8554,136.0
8555,165.0
8556,169.0
8557,173.0
8558,139.0
8559,185.0
8560,179.0
8561,177.0
8562,199.0
8563,185.0
8564,166.0
8565,146.0
8566,118.0
8567,125.0
8568,121.0
8569,126.0
8570,121.0
8571,156.0
8572,175.0
8573,150.0
8574,106.0
8575,83.0
8576,106.0
8577,143.0
8578,136.0
8579,116.0
8580,119.0
8581,77.0
8582,59.0
8583,49.0
8584,24.0
8585,20.0
8586,20.0
8587,17.0
8588,12.0
8589,5.0
8590,3.0
8591,2.0
8592,1.0
8593,1.0
8594,1.0
8595,1.0
8596,1.0
8597,0.0
8598,0.0
8599,1.0
8600,6.0
8601,8.0
8602,12.0
8603,11.0
8604,20.0
8605,26.0
8606,28.0
8607,36.0
8608,52.0
8609,59.0
8610,60.0
8611,42.0
8612,70.0
8613,99.0
8614,110.0
8615,122.0
8616,92.0
8617,113.0
8618,163.0
8619,131.0
8620,124.0
8621,99.0
8622,82.0
8623,110.0
8624,99.0
8625,46.0
8626,40.0
8627,53.0
8628,36.0
8629,31.0
8630,45.0
8631,18.0
8632,11.0
8633,15.0
8634,20.0
8635,18.0
8636,21.0
8637,16.0
8638,15.0
8639,7.0
8640,15.0
8641,12.0
8642,17.0
8643,33.0
8644,20.0
8645,33.0
8646,18.0
8647,23.0
8648,24.0
8649,59.0
8650,75.0
8651,46.0
8652,49.0
8653,44.0
8654,34.0
8655,39.0
8656,28.0
8657,20.0
8658,23.0
8659,18.0
8660,21.0
8661,33.0
8662,48.0
8663,45.0
8664,24.0
8665,12.0
8666,10.0
8667,8.0
8668,1.0
8669,2.0
8670,3.0
8671,1.0
8672,1.0
8673,0.0
8674,0.0
8675,0.0
8676,0.0
8677,0.0
8678,1.0
8679,1.0
8680,9.0
8681,25.0
8682,28.0
8683,32.0
8684,47.0
8685,48.0
8686,70.0
8687,82.0
8688,71.0
8689,85.0
8690,73.0
8691,88.0
8692,78.0
8693,103.0
8694,107.0
8695,150.0
8696,135.0
8697,115.0
8698,94.0
8699,103.0
8700,129.0
8701,136.0
8702,157.0
8703,152.0
8704,140.0
8705,172.0
8706,193.0
8707,192.0
8708,201.0
8709,200.0
8710,203.0
8711,212.0
8712,212.0
8713,210.0
8714,207.0
8715,198.0
8716,197.0
8717,199.0
8718,209.0
8719,200.0
8720,198.0
8721,201.0
8722,208.0
8723,214.0
8724,209.0
8725,202.0
8726,176.0
8727,170.0
8728,199.0
8729,213.0
8730,211.0
8731,207.0
8732,214.0
8733,212.0
8734,212.0
8735,214.0
8736,214.0
8737,215.0
8738,215.0
8739,212.0
8740,213.0
8741,211.0
8742,213.0
8743,214.0
8744,215.0
8745,215.0
8746,215.0
8747,215.0
8748,201.0
8749,175.0
8750,142.0
8751,96.0
8752,81.0
8753,93.0
8754,108.0
8755,94.0
8756,81.0
8757,65.0
8758,73.0
8759,59.0
